* Measurement data measured by REW V5.20.13
* Source: Headset (KM-HIFI-384KHZ), MICROPHONE (Master Volume), R, volume: 0.610
* Format: 256k Log Swept Sine, 1 sweep at -13.0 dBFS with no timing reference
* Dated: Aug 6, 2023 9:11:24 PM
* REW Settings:
*  C-weighting compensation: Off
*  Target level: 75.0 dB
* Note: 
* Measurement: Aug 6
* Smoothing: 1/24 octave
* Frequency Step: 1/48 octave
* Start Frequency: 20.000 Hz
*
* Freq(Hz)	SPL(dB)	Phase(degrees)
20.000000	84.443	-126.1517
20.299999	84.523	-126.9788
20.600000	84.583	-127.8112
20.900000	84.622	-128.5346
21.200001	84.658	-129.0504
21.400000	84.695	-129.2962
21.799999	84.818	-129.7472
22.000000	84.904	-130.0735
22.400000	85.094	-131.1715
22.700001	85.213	-132.4131
23.000000	85.279	-133.8621
23.299999	85.288	-135.2560
23.600000	85.262	-136.4027
24.000000	85.233	-137.4466
24.299999	85.258	-138.0364
24.700001	85.364	-138.9874
25.000000	85.465	-140.0496
25.400000	85.565	-141.9016
25.799999	85.594	-143.8098
26.200001	85.594	-145.3185
26.500000	85.613	-146.1913
26.900000	85.718	-147.3737
27.200001	85.829	-148.6033
27.600000	85.939	-150.8726
28.000000	85.921	-153.4667
28.500000	85.704	-155.9603
29.000000	85.451	-156.8468
29.500000	85.347	-156.9650
30.000000	85.321	-157.6675
30.400000	85.205	-158.4937
30.700001	85.037	-158.6757
31.100000	84.812	-157.6856
31.500000	84.777	-155.5564
32.000000	85.155	-153.2705
32.500000	85.746	-153.5910
33.000000	86.158	-156.4597
33.500000	86.282	-160.0742
34.000000	86.232	-163.0354
34.500000	86.153	-165.3122
35.000000	86.068	-167.3172
35.500000	85.947	-168.8978
36.000000	85.845	-169.6261
36.500000	85.880	-169.7748
37.000000	86.060	-170.3092
37.500000	86.248	-171.7234
38.200001	86.337	-174.1591
38.700001	86.333	-175.3567
39.500000	86.397	-176.8666
40.000000	86.439	-178.2204
40.599998	86.402	179.9004
41.200001	86.288	178.2549
41.799999	86.165	176.7902
42.500000	86.022	174.8760
43.099998	85.863	173.0205
43.700001	85.665	171.1718
44.400002	85.412	169.2219
45.000000	85.219	167.7142
45.500000	85.088	166.3470
46.200001	84.889	163.9568
46.799999	84.607	161.8043
47.500000	84.145	160.2711
48.200001	83.697	159.9970
48.700001	83.429	160.0544
49.400002	83.038	160.2397
50.000000	82.643	161.1575
50.799999	82.211	163.9646
51.500000	82.086	166.8757
52.200001	82.167	169.0837
53.000000	82.365	170.0869
53.799999	82.494	169.5988
54.500000	82.516	168.8228
55.200001	82.556	167.8365
56.000000	82.576	165.5212
57.000000	82.245	162.1186
58.000000	81.782	161.2340
59.000000	81.662	160.6823
60.000000	81.588	158.0287
60.799999	81.292	155.2113
61.500000	80.813	153.5866
62.200001	80.253	153.4409
63.000000	79.694	154.1978
64.000000	79.000	155.1051
65.000000	78.102	157.2999
66.000000	77.171	161.5403
67.000000	76.365	167.1866
68.000000	75.725	173.8918
69.000000	75.400	-178.0692
70.000000	75.592	-170.4518
71.000000	76.040	-164.5174
72.000000	76.681	-159.2711
73.000000	77.504	-155.2720
74.000000	78.328	-152.7493
75.000000	79.089	-151.1450
76.199997	79.878	-149.9882
77.500000	80.685	-149.0476
78.800003	81.435	-149.7336
80.000000	81.896	-151.1074
81.199997	82.367	-152.0623
82.500000	82.930	-153.8483
83.800003	83.394	-156.2335
85.000000	83.756	-158.1663
86.199997	84.121	-159.9110
87.500000	84.517	-162.1829
88.500000	84.765	-164.5126
90.000000	84.936	-168.5240
91.199997	84.917	-171.3152
92.500000	84.849	-173.4233
93.800003	84.842	-174.9864
95.000000	84.857	-176.7340
96.199997	84.789	-178.6652
97.500000	84.663	179.8449
98.800003	84.631	178.8886
100.000000	84.709	177.9869
101.500000	84.881	176.4641
103.000000	84.998	174.2625
104.400002	84.984	171.7361
106.000000	84.877	168.1995
107.500000	84.705	164.1673
109.000000	84.423	160.4338
110.599998	83.967	158.2262
112.000000	83.391	157.9540
113.800003	82.270	159.6437
115.000000	81.469	161.1493
117.199997	80.771	157.1570
118.000000	80.706	152.9050
120.599998	80.082	153.9669
122.000000	80.658	165.1364
124.099998	81.967	173.1697
125.000000	82.346	174.8672
126.500000	82.760	176.5835
128.000000	83.012	176.5155
131.500000	83.488	171.8038
132.000000	83.555	171.0943
134.000000	83.754	168.8008
136.000000	83.809	166.7992
138.000000	83.734	164.4456
140.000000	83.637	162.2134
143.000000	83.597	159.7733
145.000000	83.547	158.1967
147.500000	83.427	156.0137
150.000000	83.317	153.5132
152.500000	83.144	151.2070
155.000000	82.896	149.4351
157.500000	82.594	147.7090
160.000000	82.230	145.8477
162.500000	81.851	144.0542
165.000000	81.481	142.4309
167.500000	81.089	141.3488
170.000000	80.663	140.8044
172.500000	80.223	140.6245
175.000000	79.800	140.6449
177.500000	79.364	141.0360
180.000000	78.922	141.8697
182.500000	78.510	142.8553
185.000000	78.146	143.9293
187.500000	77.829	145.2832
190.000000	77.525	146.9229
192.500000	77.235	148.7615
195.000000	77.005	150.5918
197.500000	76.833	152.4755
200.000000	76.681	154.6681
203.000000	76.523	157.5624
206.000000	76.473	160.1198
209.000000	76.600	162.0690
212.000000	76.784	163.5458
214.000000	76.876	164.3216
218.000000	76.938	165.2189
220.000000	76.930	165.6036
224.000000	76.894	166.4995
227.000000	76.849	167.0884
230.000000	76.772	167.8395
233.000000	76.735	168.7686
236.000000	76.886	169.5100
240.000000	77.166	170.4852
243.000000	77.144	172.1400
247.000000	77.097	173.8105
250.000000	77.119	173.9679
254.000000	77.133	174.1671
258.000000	77.126	174.7231
262.000000	77.137	175.5624
265.000000	77.151	176.2169
269.000000	77.190	176.9515
272.000000	77.235	177.4336
276.000000	77.296	178.0309
280.000000	77.337	178.5618
285.000000	77.372	179.1961
290.000000	77.451	179.7334
295.000000	77.542	-179.8684
300.000000	77.602	-179.5633
304.000000	77.643	-179.3058
307.000000	77.674	-179.1119
311.000000	77.715	-178.9007
315.000000	77.755	-178.7084
320.000000	77.799	-178.4490
325.000000	77.836	-178.1907
330.000000	77.872	-177.9652
335.000000	77.904	-177.7926
340.000000	77.931	-177.6331
345.000000	77.956	-177.4697
350.000000	77.977	-177.3049
355.000000	77.998	-177.0834
360.000000	78.021	-176.8045
365.000000	78.046	-176.5705
370.000000	78.072	-176.3570
375.000000	78.102	-176.1253
382.000000	78.147	-175.8211
387.000000	78.178	-175.6446
395.000000	78.234	-175.4075
400.000000	78.270	-175.3105
406.000000	78.310	-175.2312
412.000000	78.345	-175.1664
418.000000	78.377	-175.1199
425.000000	78.411	-175.1311
431.000000	78.429	-175.1693
437.000000	78.431	-175.2012
444.000000	78.428	-175.1846
450.000000	78.424	-175.1212
455.000000	78.422	-175.0466
462.000000	78.425	-174.9232
468.000000	78.429	-174.8079
475.000000	78.433	-174.6659
482.000000	78.434	-174.5296
487.000000	78.436	-174.4430
494.000000	78.439	-174.3220
500.000000	78.443	-174.1969
508.000000	78.447	-174.0205
515.000000	78.449	-173.8782
522.000000	78.455	-173.7486
530.000000	78.466	-173.6202
538.000000	78.472	-173.5182
545.000000	78.470	-173.4421
552.000000	78.464	-173.3607
560.000000	78.457	-173.2468
570.000000	78.446	-173.0666
580.000000	78.429	-172.8593
590.000000	78.411	-172.6398
600.000000	78.396	-172.3815
608.000000	78.385	-172.1430
615.000000	78.376	-171.9250
622.000000	78.365	-171.7101
630.000000	78.354	-171.4618
640.000000	78.343	-171.1352
650.000000	78.332	-170.7848
660.000000	78.323	-170.4070
670.000000	78.317	-170.0190
680.000000	78.314	-169.6355
690.000000	78.314	-169.2427
700.000000	78.315	-168.8397
710.000000	78.319	-168.4257
720.000000	78.327	-168.0072
730.000000	78.336	-167.6051
740.000000	78.344	-167.2088
750.000000	78.354	-166.7922
762.000000	78.372	-166.2576
775.000000	78.396	-165.6686
788.000000	78.424	-165.1156
800.000000	78.455	-164.5891
812.000000	78.491	-164.0121
825.000000	78.543	-163.3484
838.000000	78.623	-162.7014
850.000000	78.728	-162.2643
862.000000	78.843	-162.1214
875.000000	78.933	-162.2428
885.000000	78.971	-162.4038
900.000000	78.992	-162.5937
912.000000	78.993	-162.6497
925.000000	78.984	-162.6131
938.000000	78.966	-162.4811
950.000000	78.946	-162.2962
962.000000	78.928	-162.0636
975.000000	78.912	-161.7456
988.000000	78.900	-161.3587
1000.000000	78.892	-160.9632
1015.000000	78.890	-160.4489
1030.000000	78.896	-159.9523
1044.000000	78.906	-159.5286
1060.000000	78.911	-159.0720
1075.000000	78.903	-158.6365
1090.000000	78.885	-158.1863
1106.000000	78.856	-157.6635
1120.000000	78.817	-157.0922
1138.000000	78.755	-156.1122
1150.000000	78.715	-155.2684
1172.000000	78.686	-153.3330
1180.000000	78.701	-152.5518
1206.000000	78.848	-150.0978
1220.000000	78.965	-149.0168
1241.000000	79.141	-147.6876
1250.000000	79.215	-147.1780
1265.000000	79.339	-146.3861
1280.000000	79.462	-145.6375
1315.000000	79.746	-143.9483
1320.000000	79.787	-143.7134
1340.000000	79.958	-142.7935
1360.000000	80.141	-141.9270
1380.000000	80.336	-141.1375
1400.000000	80.533	-140.4564
1430.000000	80.827	-139.5749
1450.000000	81.022	-139.0404
1475.000000	81.265	-138.4646
1500.000000	81.509	-137.9742
1525.000000	81.753	-137.5210
1550.000000	81.997	-137.0940
1575.000000	82.245	-136.7530
1600.000000	82.495	-136.4793
1625.000000	82.744	-136.2205
1650.000000	82.997	-135.9948
1675.000000	83.259	-135.8586
1700.000000	83.529	-135.7915
1725.000000	83.804	-135.7912
1750.000000	84.080	-135.9056
1775.000000	84.359	-136.1670
1800.000000	84.636	-136.5334
1825.000000	84.911	-136.9731
1850.000000	85.184	-137.5229
1875.000000	85.454	-138.2233
1900.000000	85.716	-139.0702
1925.000000	85.964	-140.0598
1950.000000	86.193	-141.1586
1975.000000	86.404	-142.3343
2000.000000	86.595	-143.5673
2030.000000	86.797	-145.0922
2060.000000	86.971	-146.6360
2090.000000	87.120	-148.1543
2120.000000	87.248	-149.6112
2140.000000	87.326	-150.5416
2180.000000	87.476	-152.3372
2200.000000	87.551	-153.2189
2240.000000	87.695	-155.0170
2270.000000	87.795	-156.4429
2300.000000	87.881	-157.9545
2330.000000	87.947	-159.5140
2360.000000	87.992	-161.0846
2400.000000	88.015	-163.1854
2430.000000	88.003	-164.7219
2470.000000	87.948	-166.6075
2500.000000	87.885	-167.8278
2540.000000	87.791	-169.1579
2580.000000	87.711	-170.2357
2620.000000	87.653	-171.1931
2650.000000	87.619	-171.8771
2690.000000	87.582	-172.7636
2720.000000	87.562	-173.4305
2760.000000	87.544	-174.3505
2800.000000	87.533	-175.3030
2850.000000	87.522	-176.5347
2900.000000	87.519	-177.9116
2950.000000	87.514	-179.5186
3000.000000	87.483	178.7036
3040.000000	87.434	177.2196
3070.000000	87.387	176.0735
3110.000000	87.311	174.5027
3150.000000	87.217	172.9048
3200.000000	87.074	170.8809
3250.000000	86.906	168.7650
3300.000000	86.702	166.4875
3350.000000	86.437	164.1306
3400.000000	86.099	161.8820
3450.000000	85.706	159.8197
3500.000000	85.264	157.9355
3550.000000	84.763	156.3056
3600.000000	84.199	155.0755
3650.000000	83.586	154.3606
3700.000000	82.944	154.2272
3750.000000	82.294	154.7140
3820.000000	81.400	156.4411
3870.000000	80.797	158.3717
3950.000000	79.946	162.4886
4000.000000	79.506	165.5908
4060.000000	79.089	169.6856
4120.000000	78.801	173.9673
4180.000000	78.646	178.1929
4250.000000	78.613	-177.2186
4310.000000	78.682	-173.7272
4370.000000	78.814	-170.7199
4440.000000	79.017	-167.8781
4500.000000	79.208	-166.0135
4550.000000	79.360	-164.8113
4620.000000	79.547	-163.5163
4680.000000	79.684	-162.6257
4750.000000	79.831	-161.7877
4820.000000	79.958	-161.2337
4870.000000	80.023	-160.9780
4940.000000	80.077	-160.6388
5000.000000	80.110	-160.3009
5080.000000	80.148	-159.9467
5150.000000	80.145	-159.8068
5220.000000	80.081	-159.6065
5300.000000	79.951	-158.9403
5380.000000	79.814	-157.6695
5450.000000	79.724	-156.1628
5520.000000	79.666	-154.4385
5600.000000	79.623	-152.2513
5700.000000	79.594	-148.8872
5800.000000	79.680	-144.4039
5900.000000	80.048	-139.0536
6000.000000	80.801	-133.9395
6080.000000	81.647	-130.9673
6150.000000	82.484	-129.6699
6220.000000	83.329	-129.7480
6300.000000	84.217	-131.4216
6400.000000	85.110	-135.3633
6500.000000	85.700	-140.4886
6600.000000	85.978	-145.7986
6700.000000	85.990	-150.4572
6800.000000	85.810	-153.9205
6900.000000	85.525	-155.8579
7000.000000	85.242	-156.2015
7100.000000	85.065	-155.1982
7200.000000	85.081	-153.3443
7300.000000	85.338	-151.3380
7400.000000	85.818	-149.9875
7500.000000	86.430	-149.9847
7620.000000	87.154	-152.1729
7750.000000	87.706	-156.7304
7880.000000	87.912	-162.0274
8000.000000	87.876	-166.2297
8120.000000	87.797	-169.4925
8250.000000	87.806	-172.8603
8380.000000	87.889	-177.4230
8500.000000	87.874	176.4263
8620.000000	87.554	168.4505
8750.000000	86.653	159.1894
8850.000000	85.505	153.2153
9000.000000	83.091	149.1956
9120.000000	80.714	152.9818
9250.000000	78.244	166.3248
9380.000000	77.393	-174.5459
9500.000000	78.458	-160.9609
9620.000000	79.839	-155.9527
9750.000000	80.785	-157.3194
9880.000000	81.064	-160.9581
10000.000000	80.849	-163.5149
10150.000000	80.230	-163.5214
10300.000000	79.682	-159.8135
10440.000000	79.566	-154.8086
10600.000000	79.853	-149.7572
10750.000000	80.259	-146.2045
10900.000000	80.723	-142.7350
11060.000000	81.541	-138.3581
11200.000000	82.797	-135.2211
11380.000000	84.764	-137.3767
11500.000000	85.575	-144.3722
11720.000000	85.251	-156.7280
11800.000000	84.863	-157.9764
12060.000000	84.454	-154.4243
12200.000000	84.922	-151.7578
12410.000000	86.219	-149.9449
12500.000000	86.925	-150.4049
12650.000000	88.199	-153.5606
12800.000000	89.379	-160.6692
13150.000000	90.050	169.1013
13200.000000	89.813	164.5744
13400.000000	88.133	150.3179
13600.000000	85.685	144.3182
13800.000000	83.047	147.1239
14000.000000	81.039	157.0792
14300.000000	81.032	173.3217
14500.000000	82.276	175.9930
14750.000000	83.529	168.3397
15000.000000	83.673	153.1770
15250.000000	82.583	137.8097
15500.000000	80.552	127.1784
15750.000000	77.982	123.2866
16000.000000	75.214	127.8020
16250.000000	73.016	141.2705
16500.000000	72.609	157.7872
16750.000000	73.942	171.3928
17000.000000	76.301	177.7322
17250.000000	78.154	171.2522
17500.000000	78.395	157.4354
17750.000000	77.218	148.3568
18000.000000	75.518	147.9402
18250.000000	74.222	152.6520
18500.000000	73.650	157.1241
18750.000000	73.379	158.3495
19000.000000	72.942	156.5076
19250.000000	72.175	152.8612
19500.000000	71.108	148.0318
19750.000000	69.873	142.6553
