* Measurement data measured by REW V5.20.13
* Source: Frequency Response Averaged data
* Format: Averaged data produced from the rms magnitudes of Aug 6, Aug 6, Aug 6
* Dated: Aug 6, 2023 9:16:16 PM
* REW Settings:
*  C-weighting compensation: Off
*  Target level: 75.0 dB
* Note: Averaged data produced from the rms magnitudes of Aug 6, Aug 6, Aug 6
* Measurement: RMS Average 1
* Smoothing: 1/24 octave
* Frequency Step: 1/48 octave
* Start Frequency: 20.000 Hz
*
* Freq(Hz)	SPL(dB)
20.000000	71.585
20.299999	71.741
20.600000	71.862
20.900000	71.954
21.200001	72.029
21.400000	72.078
21.799999	72.186
22.000000	72.249
22.400000	72.385
22.700001	72.486
23.000000	72.575
23.299999	72.651
23.600000	72.717
24.000000	72.801
24.299999	72.867
24.700001	72.965
25.000000	73.049
25.400000	73.183
25.799999	73.352
26.200001	73.543
26.500000	73.675
26.900000	73.795
27.200001	73.827
27.600000	73.804
28.000000	73.777
28.500000	73.865
29.000000	74.116
29.500000	74.380
30.000000	74.513
30.400000	74.539
30.700001	74.561
31.100000	74.652
31.500000	74.815
32.000000	75.018
32.500000	75.092
33.000000	75.019
33.500000	74.912
34.000000	74.906
34.500000	75.037
35.000000	75.245
35.500000	75.454
36.000000	75.616
36.500000	75.708
37.000000	75.725
37.500000	75.700
38.200001	75.690
38.700001	75.742
39.500000	75.914
40.000000	76.044
40.599998	76.182
41.200001	76.263
41.799999	76.294
42.500000	76.338
43.099998	76.404
43.700001	76.454
44.400002	76.475
45.000000	76.501
45.500000	76.539
46.200001	76.564
46.799999	76.525
47.500000	76.458
48.200001	76.437
48.700001	76.436
49.400002	76.405
50.000000	76.341
50.799999	76.270
51.500000	76.257
52.200001	76.256
53.000000	76.270
53.799999	76.349
54.500000	76.439
55.200001	76.497
56.000000	76.532
57.000000	76.511
58.000000	76.477
59.000000	76.667
60.000000	76.901
60.799999	76.983
61.500000	77.033
62.200001	77.089
63.000000	77.137
64.000000	77.164
65.000000	77.172
66.000000	77.162
67.000000	77.128
68.000000	77.085
69.000000	77.038
70.000000	76.990
71.000000	76.982
72.000000	76.999
73.000000	77.017
74.000000	77.060
75.000000	77.128
76.199997	77.227
77.500000	77.354
78.800003	77.470
80.000000	77.544
81.199997	77.599
82.500000	77.667
83.800003	77.740
85.000000	77.805
86.199997	77.868
87.500000	77.933
88.500000	77.984
90.000000	78.052
91.199997	78.077
92.500000	78.083
93.800003	78.093
95.000000	78.102
96.199997	78.103
97.500000	78.106
98.800003	78.103
100.000000	78.087
101.500000	78.068
103.000000	78.075
104.400002	78.104
106.000000	78.135
107.500000	78.151
109.000000	78.148
110.599998	78.134
112.000000	78.111
113.800003	78.077
115.000000	78.048
117.199997	77.985
118.000000	77.965
120.599998	77.885
122.000000	77.832
124.099998	77.776
125.000000	77.756
126.500000	77.733
128.000000	77.721
131.500000	77.699
132.000000	77.696
134.000000	77.687
136.000000	77.669
138.000000	77.655
140.000000	77.661
143.000000	77.662
145.000000	77.647
147.500000	77.628
150.000000	77.625
152.500000	77.615
155.000000	77.598
157.500000	77.583
160.000000	77.570
162.500000	77.549
165.000000	77.522
167.500000	77.504
170.000000	77.495
172.500000	77.495
175.000000	77.494
177.500000	77.499
180.000000	77.507
182.500000	77.502
185.000000	77.485
187.500000	77.471
190.000000	77.458
192.500000	77.442
195.000000	77.419
197.500000	77.391
200.000000	77.365
203.000000	77.340
206.000000	77.310
209.000000	77.260
212.000000	77.209
214.000000	77.173
218.000000	77.115
220.000000	77.101
224.000000	77.081
227.000000	77.063
230.000000	77.050
233.000000	77.022
236.000000	76.948
240.000000	76.874
243.000000	76.926
247.000000	76.993
250.000000	76.995
254.000000	76.988
258.000000	76.972
262.000000	76.962
265.000000	76.950
269.000000	76.931
272.000000	76.924
276.000000	76.914
280.000000	76.879
285.000000	76.832
290.000000	76.831
295.000000	76.833
300.000000	76.821
304.000000	76.815
307.000000	76.809
311.000000	76.796
315.000000	76.786
320.000000	76.773
325.000000	76.751
330.000000	76.731
335.000000	76.718
340.000000	76.711
345.000000	76.697
350.000000	76.677
355.000000	76.658
360.000000	76.658
365.000000	76.671
370.000000	76.671
375.000000	76.661
382.000000	76.643
387.000000	76.628
395.000000	76.612
400.000000	76.615
406.000000	76.617
412.000000	76.601
418.000000	76.572
425.000000	76.571
431.000000	76.605
437.000000	76.614
444.000000	76.612
450.000000	76.611
455.000000	76.612
462.000000	76.615
468.000000	76.610
475.000000	76.603
482.000000	76.617
487.000000	76.637
494.000000	76.668
500.000000	76.676
508.000000	76.685
515.000000	76.710
522.000000	76.735
530.000000	76.754
538.000000	76.777
545.000000	76.796
552.000000	76.813
560.000000	76.832
570.000000	76.862
580.000000	76.880
590.000000	76.900
600.000000	76.934
608.000000	76.959
615.000000	76.974
622.000000	76.990
630.000000	77.009
640.000000	77.033
650.000000	77.073
660.000000	77.108
670.000000	77.127
680.000000	77.152
690.000000	77.179
700.000000	77.197
710.000000	77.221
720.000000	77.251
730.000000	77.272
740.000000	77.292
750.000000	77.319
762.000000	77.355
775.000000	77.372
788.000000	77.363
800.000000	77.344
812.000000	77.316
825.000000	77.271
838.000000	77.237
850.000000	77.240
862.000000	77.279
875.000000	77.346
885.000000	77.399
900.000000	77.496
912.000000	77.581
925.000000	77.661
938.000000	77.739
950.000000	77.809
962.000000	77.882
975.000000	77.962
988.000000	78.029
1000.000000	78.088
1015.000000	78.177
1030.000000	78.274
1044.000000	78.358
1060.000000	78.463
1075.000000	78.562
1090.000000	78.618
1106.000000	78.667
1120.000000	78.719
1138.000000	78.785
1150.000000	78.820
1172.000000	78.916
1180.000000	78.962
1206.000000	79.065
1220.000000	79.091
1241.000000	79.117
1250.000000	79.134
1265.000000	79.178
1280.000000	79.235
1315.000000	79.320
1320.000000	79.321
1340.000000	79.332
1360.000000	79.386
1380.000000	79.469
1400.000000	79.509
1430.000000	79.576
1450.000000	79.679
1475.000000	79.768
1500.000000	79.813
1525.000000	79.815
1550.000000	79.766
1575.000000	79.711
1600.000000	79.601
1625.000000	79.509
1650.000000	79.472
1675.000000	79.417
1700.000000	79.412
1725.000000	79.441
1750.000000	79.527
1775.000000	79.654
1800.000000	79.736
1825.000000	79.839
1850.000000	79.979
1875.000000	80.095
1900.000000	80.189
1925.000000	80.267
1950.000000	80.308
1975.000000	80.332
2000.000000	80.337
2030.000000	80.343
2060.000000	80.419
2090.000000	80.553
2120.000000	80.705
2140.000000	80.828
2180.000000	81.020
2200.000000	81.090
2240.000000	81.320
2270.000000	81.571
2300.000000	81.814
2330.000000	82.034
2360.000000	82.261
2400.000000	82.573
2430.000000	82.787
2470.000000	83.080
2500.000000	83.269
2540.000000	83.477
2580.000000	83.701
2620.000000	83.950
2650.000000	84.142
2690.000000	84.385
2720.000000	84.569
2760.000000	84.809
2800.000000	85.030
2850.000000	85.237
2900.000000	85.308
2950.000000	85.333
3000.000000	85.421
3040.000000	85.502
3070.000000	85.552
3110.000000	85.576
3150.000000	85.559
3200.000000	85.526
3250.000000	85.491
3300.000000	85.419
3350.000000	85.303
3400.000000	85.235
3450.000000	85.207
3500.000000	85.147
3550.000000	85.034
3600.000000	84.910
3650.000000	84.762
3700.000000	84.566
3750.000000	84.330
3820.000000	83.992
3870.000000	83.744
3950.000000	83.277
4000.000000	82.941
4060.000000	82.507
4120.000000	82.071
4180.000000	81.623
4250.000000	81.096
4310.000000	80.678
4370.000000	80.281
4440.000000	79.860
4500.000000	79.629
4550.000000	79.564
4620.000000	79.646
4680.000000	79.879
4750.000000	80.359
4820.000000	81.017
4870.000000	81.546
4940.000000	82.269
5000.000000	82.805
5080.000000	83.353
5150.000000	83.703
5220.000000	83.996
5300.000000	84.297
5380.000000	84.568
5450.000000	84.781
5520.000000	84.965
5600.000000	85.118
5700.000000	85.154
5800.000000	85.000
5900.000000	84.646
6000.000000	84.054
6080.000000	83.411
6150.000000	82.743
6220.000000	81.999
6300.000000	81.094
6400.000000	79.939
6500.000000	78.844
6600.000000	77.894
6700.000000	77.097
6800.000000	76.423
6900.000000	75.864
7000.000000	75.420
7100.000000	75.118
7200.000000	74.966
7300.000000	74.953
7400.000000	75.069
7500.000000	75.306
7620.000000	75.694
7750.000000	76.183
7880.000000	76.703
8000.000000	77.189
8120.000000	77.660
8250.000000	78.116
8380.000000	78.438
8500.000000	78.537
8620.000000	78.390
8750.000000	77.945
8850.000000	77.441
9000.000000	76.540
9120.000000	75.759
9250.000000	74.867
9380.000000	73.882
9500.000000	72.842
9620.000000	71.668
9750.000000	70.297
9880.000000	68.939
10000.000000	67.885
10150.000000	67.263
10300.000000	67.781
10440.000000	69.106
10600.000000	71.004
10750.000000	72.706
10900.000000	74.121
11060.000000	75.272
11200.000000	76.028
11380.000000	76.737
11500.000000	77.031
11720.000000	77.015
11800.000000	76.807
12060.000000	75.679
12200.000000	75.073
12410.000000	74.504
12500.000000	74.401
12650.000000	74.376
12800.000000	74.407
13150.000000	73.538
13200.000000	73.260
13400.000000	71.940
13600.000000	70.619
13800.000000	69.616
14000.000000	69.061
14300.000000	68.883
14500.000000	68.999
14750.000000	69.238
15000.000000	69.035
15250.000000	67.951
15500.000000	66.881
15750.000000	67.331
16000.000000	68.981
16250.000000	70.773
16500.000000	72.191
16750.000000	72.988
17000.000000	73.264
17250.000000	73.277
17500.000000	72.858
17750.000000	71.561
18000.000000	69.310
18250.000000	66.597
18500.000000	64.337
18750.000000	63.457
19000.000000	63.971
19250.000000	65.042
19500.000000	66.012
19750.000000	66.610
