* Measurement data measured by REW V5.20.13
* Source: Headset (KM-HIFI-384KHZ), MICROPHONE (Master Volume), R, volume: 0.250
* Format: 256k Log Swept Sine, 1 sweep at -13.0 dBFS with no timing reference
* Dated: Jul 19, 2023 2:49:01 AM
* REW Settings:
*  C-weighting compensation: Off
*  Target level: 75.0 dB
* Note: ; 
* Measurement: HD560S (trash pads) R
* Smoothing: 1/24 octave
* Frequency Step: 1/48 octave
* Start Frequency: 20.000 Hz
*
* Freq(Hz)	SPL(dB)	Phase(degrees)
20.000000	89.323	-102.8721
20.299999	89.430	-103.5812
20.600000	89.535	-104.2689
20.900000	89.639	-104.9452
21.200001	89.740	-105.6208
21.400000	89.805	-106.0712
21.799999	89.930	-106.9634
22.000000	89.990	-107.4003
22.400000	90.105	-108.2494
22.700001	90.189	-108.8691
23.000000	90.271	-109.4840
23.299999	90.351	-110.0985
23.600000	90.427	-110.7077
24.000000	90.523	-111.4970
24.299999	90.594	-112.0620
24.700001	90.689	-112.7861
25.000000	90.763	-113.3273
25.400000	90.864	-114.0761
25.799999	90.960	-114.8646
26.200001	91.046	-115.6616
26.500000	91.105	-116.2349
26.900000	91.180	-116.9444
27.200001	91.238	-117.4401
27.600000	91.321	-118.0811
28.000000	91.407	-118.7361
28.500000	91.512	-119.5911
29.000000	91.608	-120.4500
29.500000	91.697	-121.2728
30.000000	91.785	-122.0598
30.400000	91.856	-122.6832
30.700001	91.909	-123.1556
31.100000	91.977	-123.7960
31.500000	92.042	-124.4463
32.000000	92.117	-125.2622
32.500000	92.184	-126.0607
33.000000	92.248	-126.8224
33.500000	92.312	-127.5490
34.000000	92.379	-128.2656
34.500000	92.448	-128.9934
35.000000	92.514	-129.7283
35.500000	92.577	-130.4498
36.000000	92.640	-131.1451
36.500000	92.702	-131.8154
37.000000	92.766	-132.4687
37.500000	92.830	-133.1172
38.200001	92.918	-134.0508
38.700001	92.971	-134.7425
39.500000	93.031	-135.8038
40.000000	93.057	-136.3776
40.599998	93.088	-136.9788
41.200001	93.125	-137.5591
41.799999	93.163	-138.1757
42.500000	93.202	-138.9319
43.099998	93.232	-139.5820
43.700001	93.265	-140.2498
44.400002	93.304	-141.0775
45.000000	93.337	-141.8008
45.500000	93.368	-142.3968
46.200001	93.418	-143.2652
46.799999	93.456	-144.0490
47.500000	93.492	-144.8667
48.200001	93.548	-145.5686
48.700001	93.602	-146.1664
49.400002	93.645	-147.2361
50.000000	93.621	-148.0393
50.799999	93.567	-148.4180
51.500000	93.594	-148.4206
52.200001	93.670	-148.7057
53.000000	93.736	-149.3755
53.799999	93.775	-150.0957
54.500000	93.801	-150.7767
55.200001	93.812	-151.4947
56.000000	93.815	-152.2345
57.000000	93.834	-153.1217
58.000000	93.855	-154.1355
59.000000	93.858	-155.2110
60.000000	93.828	-156.3103
60.799999	93.772	-157.0504
61.500000	93.716	-157.5158
62.200001	93.667	-157.8785
63.000000	93.617	-158.2287
64.000000	93.568	-158.5323
65.000000	93.553	-158.8123
66.000000	93.552	-159.1973
67.000000	93.556	-159.5654
68.000000	93.584	-159.8980
69.000000	93.638	-160.3705
70.000000	93.691	-161.0828
71.000000	93.722	-161.9673
72.000000	93.724	-162.9266
73.000000	93.702	-163.8938
74.000000	93.662	-164.8543
75.000000	93.603	-165.8191
76.199997	93.501	-166.9450
77.500000	93.344	-168.0622
78.800003	93.123	-168.9067
80.000000	92.872	-169.1662
81.199997	92.615	-168.7634
82.500000	92.388	-167.5815
83.800003	92.279	-165.8725
85.000000	92.310	-164.2954
86.199997	92.432	-163.1018
87.500000	92.616	-162.3754
88.500000	92.765	-162.2213
90.000000	92.963	-162.4980
91.199997	93.091	-162.9982
92.500000	93.193	-163.6867
93.800003	93.261	-164.4296
95.000000	93.295	-165.1224
96.199997	93.301	-165.8030
97.500000	93.274	-166.4669
98.800003	93.225	-166.9378
100.000000	93.187	-167.1528
101.500000	93.185	-167.2774
103.000000	93.226	-167.5187
104.400002	93.266	-167.9086
106.000000	93.291	-168.4564
107.500000	93.295	-169.0101
109.000000	93.285	-169.6379
110.599998	93.250	-170.3964
112.000000	93.196	-171.0049
113.800003	93.110	-171.5986
115.000000	93.045	-171.8525
117.199997	92.921	-172.0124
118.000000	92.880	-171.9849
120.599998	92.791	-171.7396
122.000000	92.775	-171.6081
124.099998	92.772	-171.5065
125.000000	92.772	-171.4951
126.500000	92.764	-171.4730
128.000000	92.755	-171.4044
131.500000	92.778	-171.2713
132.000000	92.786	-171.2829
134.000000	92.817	-171.4242
136.000000	92.838	-171.6956
138.000000	92.843	-172.0106
140.000000	92.837	-172.2860
143.000000	92.820	-172.5936
145.000000	92.802	-172.7823
147.500000	92.780	-173.0294
150.000000	92.766	-173.2581
152.500000	92.759	-173.4270
155.000000	92.733	-173.5911
157.500000	92.696	-173.7330
160.000000	92.679	-173.9546
162.500000	92.674	-174.2164
165.000000	92.661	-174.4072
167.500000	92.634	-174.5256
170.000000	92.605	-174.6272
172.500000	92.579	-174.8284
175.000000	92.544	-175.0703
177.500000	92.511	-175.2595
180.000000	92.480	-175.3819
182.500000	92.448	-175.4332
185.000000	92.416	-175.4576
187.500000	92.384	-175.5019
190.000000	92.352	-175.5502
192.500000	92.324	-175.6010
195.000000	92.295	-175.6496
197.500000	92.262	-175.6795
200.000000	92.227	-175.6897
203.000000	92.183	-175.6697
206.000000	92.141	-175.5872
209.000000	92.102	-175.4470
212.000000	92.068	-175.2820
214.000000	92.053	-175.1702
218.000000	92.036	-174.9808
220.000000	92.028	-174.9115
224.000000	92.004	-174.8072
227.000000	91.986	-174.7368
230.000000	91.967	-174.6803
233.000000	91.940	-174.6122
236.000000	91.910	-174.5115
240.000000	91.877	-174.4005
243.000000	91.855	-174.3132
247.000000	91.831	-174.1071
250.000000	91.819	-173.9141
254.000000	91.805	-173.6926
258.000000	91.790	-173.5057
262.000000	91.773	-173.3204
265.000000	91.758	-173.1921
269.000000	91.737	-173.0182
272.000000	91.726	-172.8652
276.000000	91.713	-172.6441
280.000000	91.700	-172.4288
285.000000	91.686	-172.1782
290.000000	91.677	-171.9116
295.000000	91.669	-171.6179
300.000000	91.669	-171.3298
304.000000	91.674	-171.1115
307.000000	91.678	-170.9416
311.000000	91.684	-170.7222
315.000000	91.689	-170.5203
320.000000	91.687	-170.2869
325.000000	91.692	-170.0432
330.000000	91.700	-169.7747
335.000000	91.701	-169.5079
340.000000	91.705	-169.2266
345.000000	91.718	-168.9492
350.000000	91.735	-168.6870
355.000000	91.755	-168.4424
360.000000	91.775	-168.2268
365.000000	91.799	-168.0199
370.000000	91.825	-167.8232
375.000000	91.847	-167.6570
382.000000	91.870	-167.4639
387.000000	91.887	-167.3379
395.000000	91.915	-167.1374
400.000000	91.934	-166.9994
406.000000	91.958	-166.8262
412.000000	91.983	-166.6794
418.000000	92.004	-166.5503
425.000000	92.027	-166.4241
431.000000	92.049	-166.3330
437.000000	92.069	-166.2540
444.000000	92.078	-166.1288
450.000000	92.082	-165.9504
455.000000	92.092	-165.7768
462.000000	92.120	-165.5548
468.000000	92.151	-165.4269
475.000000	92.184	-165.3715
482.000000	92.208	-165.3683
487.000000	92.218	-165.3633
494.000000	92.224	-165.3390
500.000000	92.228	-165.3004
508.000000	92.233	-165.2510
515.000000	92.235	-165.2339
522.000000	92.229	-165.2210
530.000000	92.213	-165.1913
538.000000	92.184	-165.1266
545.000000	92.146	-164.9702
552.000000	92.102	-164.7028
560.000000	92.053	-164.2536
570.000000	92.014	-163.4495
580.000000	92.029	-162.5203
590.000000	92.088	-161.7005
600.000000	92.169	-161.0946
608.000000	92.238	-160.7670
615.000000	92.290	-160.5509
622.000000	92.335	-160.3433
630.000000	92.392	-160.1030
640.000000	92.480	-159.8978
650.000000	92.565	-159.8877
660.000000	92.630	-160.0292
670.000000	92.673	-160.3178
680.000000	92.680	-160.7835
690.000000	92.611	-161.2725
700.000000	92.455	-161.3168
710.000000	92.275	-160.4441
720.000000	92.199	-158.8286
730.000000	92.266	-157.2837
740.000000	92.393	-156.2583
750.000000	92.515	-155.6057
762.000000	92.649	-155.0462
775.000000	92.782	-154.5659
788.000000	92.908	-154.1869
800.000000	93.023	-153.9172
812.000000	93.132	-153.7108
825.000000	93.240	-153.5365
838.000000	93.344	-153.3916
850.000000	93.441	-153.2923
862.000000	93.539	-153.2697
875.000000	93.636	-153.3491
885.000000	93.697	-153.4671
900.000000	93.761	-153.6014
912.000000	93.801	-153.6083
925.000000	93.842	-153.5502
938.000000	93.884	-153.4074
950.000000	93.931	-153.1955
962.000000	93.993	-152.9584
975.000000	94.074	-152.7794
988.000000	94.158	-152.6967
1000.000000	94.231	-152.6560
1015.000000	94.323	-152.6445
1030.000000	94.414	-152.7497
1044.000000	94.485	-152.9279
1060.000000	94.547	-153.1669
1075.000000	94.585	-153.3480
1090.000000	94.617	-153.4093
1106.000000	94.654	-153.4003
1120.000000	94.685	-153.3533
1138.000000	94.732	-153.2285
1150.000000	94.771	-153.1526
1172.000000	94.839	-153.0265
1180.000000	94.865	-152.9599
1206.000000	94.962	-152.7156
1220.000000	95.033	-152.6035
1241.000000	95.148	-152.6393
1250.000000	95.190	-152.7276
1265.000000	95.242	-152.8983
1280.000000	95.281	-152.9626
1315.000000	95.430	-153.1314
1320.000000	95.447	-153.2256
1340.000000	95.483	-153.5073
1360.000000	95.523	-153.5747
1380.000000	95.575	-153.7921
1400.000000	95.586	-154.0363
1430.000000	95.611	-153.9904
1450.000000	95.634	-154.0224
1475.000000	95.656	-153.9325
1500.000000	95.691	-153.8454
1525.000000	95.691	-153.7832
1550.000000	95.682	-153.3381
1575.000000	95.737	-152.6936
1600.000000	95.821	-152.2408
1625.000000	95.916	-151.8387
1650.000000	96.030	-151.6763
1675.000000	96.119	-151.6233
1700.000000	96.205	-151.5547
1725.000000	96.283	-151.5427
1750.000000	96.362	-151.5592
1775.000000	96.420	-151.7599
1800.000000	96.421	-151.8756
1825.000000	96.408	-151.6144
1850.000000	96.412	-151.1037
1875.000000	96.439	-150.3713
1900.000000	96.511	-149.4908
1925.000000	96.637	-148.6145
1950.000000	96.803	-147.9580
1975.000000	96.979	-147.5659
2000.000000	97.151	-147.3757
2030.000000	97.340	-147.2997
2060.000000	97.509	-147.2992
2090.000000	97.670	-147.1914
2120.000000	97.858	-147.0241
2140.000000	98.000	-146.9640
2180.000000	98.329	-147.2518
2200.000000	98.480	-147.7581
2240.000000	98.680	-148.9522
2270.000000	98.777	-149.5959
2300.000000	98.880	-149.8587
2330.000000	99.067	-150.0746
2360.000000	99.282	-150.9820
2400.000000	99.437	-152.9595
2430.000000	99.423	-154.3325
2470.000000	99.328	-155.2915
2500.000000	99.252	-155.4982
2540.000000	99.192	-155.0901
2580.000000	99.219	-154.2396
2620.000000	99.381	-153.2030
2650.000000	99.576	-152.8417
2690.000000	99.840	-153.0896
2720.000000	99.975	-153.6496
2760.000000	100.070	-154.0963
2800.000000	100.161	-153.8638
2850.000000	100.411	-152.8857
2900.000000	100.903	-152.0358
2950.000000	101.586	-152.8189
3000.000000	102.174	-155.9620
3040.000000	102.440	-159.3354
3070.000000	102.528	-161.8566
3110.000000	102.530	-164.8759
3150.000000	102.443	-167.2313
3200.000000	102.323	-169.0786
3250.000000	102.299	-170.3871
3300.000000	102.339	-171.9337
3350.000000	102.349	-173.8407
3400.000000	102.285	-175.6327
3450.000000	102.204	-176.9379
3500.000000	102.152	-177.9367
3550.000000	102.148	-178.7214
3600.000000	102.232	-179.5907
3650.000000	102.385	178.7873
3700.000000	102.470	175.9851
3750.000000	102.342	172.6799
3820.000000	101.819	169.3903
3870.000000	101.352	168.7967
3950.000000	100.743	170.4086
4000.000000	100.539	172.5717
4060.000000	100.581	175.7233
4120.000000	100.936	178.2078
4180.000000	101.446	179.3431
4250.000000	102.184	179.2053
4310.000000	102.874	176.9523
4370.000000	103.374	172.5890
4440.000000	103.581	166.5926
4500.000000	103.487	161.9760
4550.000000	103.296	158.9648
4620.000000	103.003	156.0123
4680.000000	102.798	154.1559
4750.000000	102.608	152.2985
4820.000000	102.455	150.6237
4870.000000	102.374	149.5848
4940.000000	102.333	148.2220
5000.000000	102.364	146.7992
5080.000000	102.435	144.2598
5150.000000	102.476	141.5074
5220.000000	102.471	138.5179
5300.000000	102.452	135.0319
5380.000000	102.469	131.0951
5450.000000	102.470	126.7994
5520.000000	102.377	121.6652
5600.000000	102.088	115.1266
5700.000000	101.393	106.7916
5800.000000	100.332	99.5637
5900.000000	99.042	94.1359
6000.000000	97.618	90.3867
6080.000000	96.409	88.5771
6150.000000	95.314	87.9721
6220.000000	94.217	88.3439
6300.000000	93.016	89.6419
6400.000000	91.573	92.0375
6500.000000	90.083	95.9749
6600.000000	88.623	102.5512
6700.000000	87.456	111.5669
6800.000000	86.815	121.4972
6900.000000	86.706	130.1859
7000.000000	86.817	136.3603
7100.000000	86.839	140.6794
7200.000000	86.690	144.6832
7300.000000	86.459	149.4203
7400.000000	86.282	155.1748
7500.000000	86.271	161.6458
7620.000000	86.574	169.7710
7750.000000	87.339	177.5408
7880.000000	88.360	-177.0977
8000.000000	89.322	-174.3438
8120.000000	90.271	-172.8089
8250.000000	91.359	-172.3736
8380.000000	92.514	-173.5911
8500.000000	93.654	-176.3973
8620.000000	94.921	178.4438
8750.000000	96.256	167.9732
8850.000000	96.959	155.2646
9000.000000	96.892	129.2281
9120.000000	95.401	107.4994
9250.000000	92.150	93.8644
9380.000000	87.574	98.8148
9500.000000	83.183	119.4169
9620.000000	80.937	145.1385
9750.000000	81.590	165.7753
9880.000000	82.956	176.8948
10000.000000	84.043	-177.7611
10150.000000	85.122	-173.9425
10300.000000	86.143	-170.9013
10440.000000	87.483	-168.4352
10600.000000	89.678	-170.2054
10750.000000	91.330	176.4970
10900.000000	91.140	155.1021
11060.000000	88.837	140.7823
11200.000000	86.128	138.6122
11380.000000	82.898	142.3507
11500.000000	80.844	147.5554
11720.000000	76.632	172.0527
11800.000000	75.324	-171.1510
12060.000000	78.283	-110.2549
12200.000000	81.723	-92.9100
12410.000000	86.127	-85.7349
12500.000000	87.783	-86.3541
12650.000000	90.233	-91.0107
12800.000000	92.080	-100.4079
13150.000000	93.218	-128.3609
13200.000000	93.114	-131.2383
13400.000000	92.521	-139.0380
13600.000000	91.937	-142.6737
13800.000000	91.525	-144.0649
14000.000000	91.284	-144.2963
14300.000000	91.297	-142.3238
14500.000000	91.978	-139.5973
14750.000000	94.063	-139.5987
15000.000000	96.145	-153.5262
15250.000000	96.109	-178.4263
15500.000000	93.916	165.6763
15750.000000	91.182	162.9843
16000.000000	89.089	166.9884
16250.000000	87.861	173.0900
16500.000000	87.224	178.6102
16750.000000	86.803	-176.6082
17000.000000	86.579	-171.9870
17250.000000	86.583	-169.1472
17500.000000	86.304	-168.3337
17750.000000	85.685	-164.7985
18000.000000	85.492	-158.7717
18250.000000	85.857	-154.0077
18500.000000	86.534	-151.5792
18750.000000	87.432	-151.8995
19000.000000	88.385	-156.1459
19250.000000	89.059	-164.6924
19500.000000	89.238	-175.9391
19750.000000	88.968	172.7128
