* Measurement data measured by REW V5.20.13
* Source: Headset (KM-HIFI-384KHZ), MICROPHONE (Master Volume), R, volume: 0.250
* Format: 256k Log Swept Sine, 1 sweep at -13.0 dBFS with no timing reference
* Dated: Jul 19, 2023 3:16:00 AM
* REW Settings:
*  C-weighting compensation: Off
*  Target level: 75.0 dB
* Note: ; 
* Measurement: HD600 (Silver Screen) R
* Smoothing: 1/24 octave
* Frequency Step: 1/48 octave
* Start Frequency: 20.000 Hz
*
* Freq(Hz)	SPL(dB)	Phase(degrees)
20.000000	84.418	-85.0750
20.299999	84.628	-85.7900
20.600000	84.817	-86.6429
20.900000	84.976	-87.5881
21.200001	85.101	-88.5642
21.400000	85.164	-89.1842
21.799999	85.251	-90.2526
22.000000	85.281	-90.6586
22.400000	85.340	-91.1756
22.700001	85.401	-91.3649
23.000000	85.487	-91.5022
23.299999	85.592	-91.7000
23.600000	85.704	-92.0060
24.000000	85.843	-92.5572
24.299999	85.931	-92.9819
24.700001	86.038	-93.4329
25.000000	86.125	-93.6640
25.400000	86.270	-93.9228
25.799999	86.444	-94.3129
26.200001	86.621	-94.9493
26.500000	86.737	-95.5514
26.900000	86.860	-96.3830
27.200001	86.934	-96.9220
27.600000	87.027	-97.4577
28.000000	87.137	-97.8403
28.500000	87.309	-98.3390
29.000000	87.491	-99.0790
29.500000	87.643	-100.0188
30.000000	87.753	-100.9085
30.400000	87.828	-101.4578
30.700001	87.890	-101.7829
31.100000	87.989	-102.1973
31.500000	88.100	-102.7028
32.000000	88.228	-103.5388
32.500000	88.316	-104.4684
33.000000	88.365	-105.2192
33.500000	88.412	-105.6558
34.000000	88.494	-105.9065
34.500000	88.616	-106.2514
35.000000	88.744	-106.8505
35.500000	88.838	-107.6015
36.000000	88.892	-108.2131
36.500000	88.944	-108.4710
37.000000	89.048	-108.4731
37.500000	89.224	-108.6065
38.200001	89.502	-109.6599
38.700001	89.628	-110.9402
39.500000	89.660	-112.6769
40.000000	89.649	-113.1387
40.599998	89.691	-113.2882
41.200001	89.794	-113.4946
41.799999	89.911	-113.9102
42.500000	90.043	-114.5122
43.099998	90.162	-115.1275
43.700001	90.273	-115.9179
44.400002	90.373	-116.9501
45.000000	90.443	-117.7886
45.500000	90.502	-118.4856
46.200001	90.571	-119.5173
46.799999	90.608	-120.2914
47.500000	90.669	-120.8746
48.200001	90.794	-121.4977
48.700001	90.884	-122.2390
49.400002	90.926	-123.4152
50.000000	90.896	-123.8878
50.799999	90.930	-123.5590
51.500000	91.091	-123.3450
52.200001	91.261	-123.7523
53.000000	91.391	-124.4513
53.799999	91.504	-125.1432
54.500000	91.581	-125.9641
55.200001	91.610	-126.7710
56.000000	91.642	-127.4350
57.000000	91.723	-128.4594
58.000000	91.758	-129.6392
59.000000	91.796	-130.4145
60.000000	91.885	-131.0737
60.799999	91.979	-131.6329
61.500000	92.072	-132.2152
62.200001	92.157	-132.9344
63.000000	92.225	-133.8727
64.000000	92.253	-135.0003
65.000000	92.248	-135.8571
66.000000	92.252	-136.4985
67.000000	92.282	-137.1101
68.000000	92.319	-137.9020
69.000000	92.317	-138.7240
70.000000	92.292	-139.2906
71.000000	92.270	-139.6470
72.000000	92.251	-139.8406
73.000000	92.246	-139.8568
74.000000	92.276	-139.7943
75.000000	92.344	-139.8579
76.199997	92.442	-140.2140
77.500000	92.544	-140.7711
78.800003	92.658	-141.4203
80.000000	92.750	-142.2494
81.199997	92.811	-143.0858
82.500000	92.870	-144.0402
83.800003	92.906	-145.0802
85.000000	92.928	-146.0592
86.199997	92.935	-147.0567
87.500000	92.921	-148.1339
88.500000	92.882	-148.9085
90.000000	92.778	-149.8112
91.199997	92.665	-150.2103
92.500000	92.536	-150.2055
93.800003	92.452	-149.6862
95.000000	92.461	-148.9832
96.199997	92.547	-148.4125
97.500000	92.680	-148.1144
98.800003	92.809	-148.1285
100.000000	92.909	-148.2867
101.500000	93.020	-148.7174
103.000000	93.092	-149.4014
104.400002	93.141	-150.0054
106.000000	93.209	-150.6671
107.500000	93.268	-151.2907
109.000000	93.313	-151.8672
110.599998	93.339	-152.4618
112.000000	93.357	-153.0168
113.800003	93.371	-153.9694
115.000000	93.365	-154.6165
117.199997	93.359	-155.5619
118.000000	93.358	-155.8230
120.599998	93.360	-156.5245
122.000000	93.344	-156.9469
124.099998	93.306	-157.5440
125.000000	93.295	-157.8049
126.500000	93.279	-158.2395
128.000000	93.259	-158.5677
131.500000	93.245	-158.7597
132.000000	93.249	-158.7855
134.000000	93.263	-158.9920
136.000000	93.278	-159.2885
138.000000	93.303	-159.6501
140.000000	93.330	-160.0593
143.000000	93.353	-160.8337
145.000000	93.347	-161.4102
147.500000	93.329	-162.0801
150.000000	93.300	-162.5787
152.500000	93.274	-162.8492
155.000000	93.272	-163.1985
157.500000	93.278	-163.6442
160.000000	93.302	-164.0816
162.500000	93.310	-164.5105
165.000000	93.294	-164.8839
167.500000	93.275	-165.2446
170.000000	93.261	-165.6824
172.500000	93.221	-166.1173
175.000000	93.168	-166.3588
177.500000	93.142	-166.5526
180.000000	93.129	-166.7713
182.500000	93.116	-166.9505
185.000000	93.092	-167.1256
187.500000	93.070	-167.2913
190.000000	93.065	-167.5176
192.500000	93.060	-167.7608
195.000000	93.049	-167.9740
197.500000	93.035	-168.2102
200.000000	93.022	-168.4592
203.000000	93.003	-168.7061
206.000000	92.980	-168.9192
209.000000	92.960	-169.1825
212.000000	92.945	-169.4651
214.000000	92.931	-169.6396
218.000000	92.884	-169.9485
220.000000	92.860	-170.0801
224.000000	92.815	-170.3654
227.000000	92.783	-170.5680
230.000000	92.754	-170.7291
233.000000	92.718	-170.8520
236.000000	92.671	-170.9926
240.000000	92.598	-171.1546
243.000000	92.552	-171.1205
247.000000	92.515	-171.0072
250.000000	92.494	-170.9119
254.000000	92.470	-170.7877
258.000000	92.450	-170.7006
262.000000	92.441	-170.6214
265.000000	92.437	-170.6409
269.000000	92.405	-170.6480
272.000000	92.378	-170.5309
276.000000	92.364	-170.4727
280.000000	92.356	-170.5324
285.000000	92.338	-170.5537
290.000000	92.318	-170.5874
295.000000	92.289	-170.5832
300.000000	92.267	-170.5201
304.000000	92.261	-170.4469
307.000000	92.256	-170.4046
311.000000	92.250	-170.3573
315.000000	92.246	-170.2460
320.000000	92.230	-170.1445
325.000000	92.215	-170.1505
330.000000	92.207	-170.1232
335.000000	92.191	-170.0599
340.000000	92.170	-169.9287
345.000000	92.155	-169.8362
350.000000	92.146	-169.7299
355.000000	92.120	-169.7441
360.000000	92.100	-170.2089
365.000000	92.105	-170.6828
370.000000	92.066	-170.4073
375.000000	92.040	-169.7302
382.000000	92.032	-169.2195
387.000000	92.027	-169.0330
395.000000	92.019	-168.8795
400.000000	92.011	-168.8153
406.000000	91.997	-168.7117
412.000000	91.975	-168.5898
418.000000	91.952	-168.4626
425.000000	91.924	-168.2469
431.000000	91.910	-167.9965
437.000000	91.897	-167.7521
444.000000	91.880	-167.4481
450.000000	91.869	-167.2174
455.000000	91.864	-167.0447
462.000000	91.860	-166.7184
468.000000	91.856	-166.5025
475.000000	91.855	-166.3167
482.000000	91.853	-166.0403
487.000000	91.845	-165.7905
494.000000	91.840	-165.3906
500.000000	91.846	-165.0466
508.000000	91.853	-164.6677
515.000000	91.859	-164.4355
522.000000	91.869	-164.2635
530.000000	91.879	-164.0246
538.000000	91.888	-163.7085
545.000000	91.900	-163.4401
552.000000	91.911	-163.2042
560.000000	91.923	-162.9570
570.000000	91.942	-162.6187
580.000000	91.963	-162.2648
590.000000	91.975	-161.9064
600.000000	91.990	-161.5133
608.000000	92.003	-161.1890
615.000000	92.012	-160.9177
622.000000	92.029	-160.6470
630.000000	92.056	-160.3407
640.000000	92.082	-159.9428
650.000000	92.102	-159.5000
660.000000	92.132	-159.0489
670.000000	92.174	-158.6239
680.000000	92.223	-158.3022
690.000000	92.280	-158.0096
700.000000	92.334	-157.7498
710.000000	92.379	-157.5465
720.000000	92.422	-157.3705
730.000000	92.458	-157.1193
740.000000	92.488	-156.7598
750.000000	92.527	-156.5407
762.000000	92.581	-156.3918
775.000000	92.640	-156.1379
788.000000	92.701	-155.9698
800.000000	92.750	-155.8792
812.000000	92.793	-155.7747
825.000000	92.848	-155.6466
838.000000	92.913	-155.7293
850.000000	92.954	-156.0423
862.000000	92.953	-156.4668
875.000000	92.883	-156.9501
885.000000	92.768	-157.1636
900.000000	92.510	-156.6134
912.000000	92.344	-155.1060
925.000000	92.331	-153.0333
938.000000	92.456	-151.4433
950.000000	92.600	-150.5404
962.000000	92.731	-149.9569
975.000000	92.848	-149.4873
988.000000	92.938	-149.1089
1000.000000	93.003	-148.7729
1015.000000	93.080	-148.2611
1030.000000	93.172	-147.7261
1044.000000	93.269	-147.2853
1060.000000	93.370	-146.8383
1075.000000	93.458	-146.3402
1090.000000	93.575	-145.8315
1106.000000	93.701	-145.5624
1120.000000	93.779	-145.3458
1138.000000	93.871	-144.8343
1150.000000	93.956	-144.4479
1172.000000	94.126	-144.0041
1180.000000	94.184	-143.8519
1206.000000	94.395	-143.3876
1220.000000	94.515	-143.2800
1241.000000	94.679	-143.2166
1250.000000	94.747	-143.2184
1265.000000	94.850	-143.3029
1280.000000	94.932	-143.3549
1315.000000	95.129	-143.2400
1320.000000	95.163	-143.2565
1340.000000	95.278	-143.4385
1360.000000	95.363	-143.4756
1380.000000	95.470	-143.3073
1400.000000	95.604	-143.3036
1430.000000	95.766	-143.5500
1450.000000	95.865	-143.6584
1475.000000	95.997	-143.8892
1500.000000	96.101	-144.1502
1525.000000	96.211	-144.4682
1550.000000	96.261	-144.9999
1575.000000	96.275	-144.9635
1600.000000	96.350	-144.7700
1625.000000	96.435	-144.5867
1650.000000	96.567	-144.4757
1675.000000	96.693	-144.8696
1700.000000	96.757	-145.3558
1725.000000	96.786	-145.7499
1750.000000	96.782	-145.8850
1775.000000	96.784	-145.6994
1800.000000	96.804	-145.3259
1825.000000	96.850	-144.8128
1850.000000	96.937	-144.3275
1875.000000	97.043	-144.0143
1900.000000	97.142	-143.8362
1925.000000	97.231	-143.7208
1950.000000	97.299	-143.6015
1975.000000	97.348	-143.3043
2000.000000	97.412	-142.7712
2030.000000	97.530	-141.9893
2060.000000	97.723	-141.1963
2090.000000	97.952	-140.9485
2120.000000	98.136	-140.9512
2140.000000	98.253	-140.9507
2180.000000	98.446	-140.9472
2200.000000	98.552	-140.7752
2240.000000	98.810	-140.7034
2270.000000	99.006	-140.8056
2300.000000	99.180	-141.2831
2330.000000	99.268	-141.7022
2360.000000	99.331	-141.6949
2400.000000	99.443	-140.8546
2430.000000	99.644	-139.8712
2470.000000	100.037	-139.0472
2500.000000	100.372	-138.9522
2540.000000	100.790	-139.3340
2580.000000	101.233	-140.0760
2620.000000	101.655	-141.5613
2650.000000	101.896	-143.1413
2690.000000	102.092	-144.9860
2720.000000	102.223	-145.9170
2760.000000	102.459	-146.7941
2800.000000	102.771	-147.8470
2850.000000	103.209	-149.9779
2900.000000	103.540	-153.2225
2950.000000	103.684	-156.2907
3000.000000	103.827	-158.5529
3040.000000	104.000	-160.4206
3070.000000	104.130	-162.1295
3110.000000	104.255	-164.7132
3150.000000	104.313	-167.3628
3200.000000	104.301	-170.4824
3250.000000	104.231	-173.0828
3300.000000	104.198	-175.1964
3350.000000	104.225	-177.5271
3400.000000	104.195	179.6615
3450.000000	104.074	177.0820
3500.000000	103.945	174.8428
3550.000000	103.808	172.7100
3600.000000	103.659	170.7293
3650.000000	103.507	168.9401
3700.000000	103.373	167.2528
3750.000000	103.253	165.3331
3820.000000	102.998	162.2946
3870.000000	102.740	160.3410
3950.000000	102.243	157.7308
4000.000000	101.872	156.6349
4060.000000	101.423	156.0712
4120.000000	101.011	156.0677
4180.000000	100.623	156.5285
4250.000000	100.226	157.9369
4310.000000	100.011	159.6761
4370.000000	99.909	161.3896
4440.000000	99.877	163.3373
4500.000000	99.936	165.1050
4550.000000	100.083	166.6061
4620.000000	100.479	168.1212
4680.000000	100.904	168.1205
4750.000000	101.323	166.7965
4820.000000	101.656	164.9861
4870.000000	101.864	163.4123
4940.000000	102.087	160.9272
5000.000000	102.227	158.7283
5080.000000	102.377	155.8583
5150.000000	102.517	153.4681
5220.000000	102.718	150.9026
5300.000000	102.999	147.0193
5380.000000	103.231	141.7780
5450.000000	103.305	136.0959
5520.000000	103.192	129.8545
5600.000000	102.850	122.6125
5700.000000	102.090	113.6202
5800.000000	100.904	105.9850
5900.000000	99.412	101.1650
6000.000000	97.874	99.0660
6080.000000	96.689	98.6297
6150.000000	95.662	99.1503
6220.000000	94.675	100.5758
6300.000000	93.650	102.9821
6400.000000	92.516	106.6219
6500.000000	91.485	110.8786
6600.000000	90.556	115.9190
6700.000000	89.782	121.4532
6800.000000	89.140	127.2420
6900.000000	88.578	133.3101
7000.000000	88.084	140.1630
7100.000000	87.787	148.0514
7200.000000	87.799	156.3130
7300.000000	88.145	164.4100
7400.000000	88.851	171.5577
7500.000000	89.826	176.6781
7620.000000	91.073	179.4209
7750.000000	92.291	178.7349
7880.000000	93.226	174.9886
8000.000000	93.743	169.8286
8120.000000	93.888	163.8786
8250.000000	93.591	157.7839
8380.000000	92.889	153.8847
8500.000000	92.096	153.3605
8620.000000	91.469	155.6076
8750.000000	91.313	159.5863
8850.000000	91.653	161.9454
9000.000000	92.591	160.9822
9120.000000	93.175	154.8441
9250.000000	93.098	144.4774
9380.000000	92.122	134.9290
9500.000000	90.638	129.8251
9620.000000	88.874	128.6509
9750.000000	86.825	131.8739
9880.000000	84.829	140.2471
10000.000000	83.354	152.3050
10150.000000	82.628	170.8948
10300.000000	83.481	-170.8967
10440.000000	85.315	-157.8849
10600.000000	88.048	-149.7027
10750.000000	90.730	-150.4799
10900.000000	92.616	-162.5071
11060.000000	92.694	177.4290
11200.000000	91.094	166.7177
11380.000000	88.189	169.1971
11500.000000	86.699	177.1165
11720.000000	85.827	-164.1147
11800.000000	86.100	-157.2115
12060.000000	88.620	-139.9203
12200.000000	90.443	-136.2260
12410.000000	93.020	-138.8574
12500.000000	93.959	-142.6854
12650.000000	95.198	-152.2791
12800.000000	95.874	-165.4594
13150.000000	94.439	162.3271
13200.000000	93.917	159.2557
13400.000000	91.424	152.8584
13600.000000	88.884	154.3094
13800.000000	86.931	159.6278
14000.000000	85.654	165.5138
14300.000000	84.386	173.1876
14500.000000	83.669	177.8583
14750.000000	82.641	-176.1751
15000.000000	81.194	-162.5324
15250.000000	81.807	-137.3623
15500.000000	84.813	-120.7202
15750.000000	87.632	-116.8984
16000.000000	89.977	-119.3342
16250.000000	91.913	-125.5614
16500.000000	93.364	-135.0365
16750.000000	94.199	-146.6569
17000.000000	94.498	-158.6742
17250.000000	94.469	-171.5783
17500.000000	93.910	172.7460
17750.000000	92.332	156.7989
18000.000000	89.629	146.0801
18250.000000	86.070	143.7768
18500.000000	81.827	155.6505
18750.000000	77.888	-170.6334
19000.000000	78.782	-131.4873
19250.000000	82.261	-112.9423
19500.000000	85.065	-113.2047
19750.000000	86.886	-121.6319
