* Measurement data measured by REW V5.20.13
* Source: EXCL: Headset (KM-HIFI-384KHZ), MICROPHONE (Master Volume), 0, volume: 1.000
* Format: 256k Log Swept Sine, 1 sweep at -13.0 dBFS with no timing reference
* Dated: Sep 8, 2023 11:53:01 AM
* REW Settings:
*  C-weighting compensation: Off
*  Target level: 75.0 dB
* Note: 
* Measurement: Sep 8
* Smoothing: 1/24 octave
* Frequency Step: 1/48 octave
* Start Frequency: 20.000 Hz
*
* Freq(Hz)	SPL(dB)	Phase(degrees)
20.000000	82.222	70.2111
20.299999	82.342	69.6297
20.600000	82.458	69.0395
20.900000	82.572	68.4391
21.200001	82.683	67.8123
21.400000	82.755	67.3699
21.799999	82.884	66.4310
22.000000	82.937	65.9506
22.400000	83.022	65.0322
22.700001	83.069	64.4474
23.000000	83.110	63.9863
23.299999	83.157	63.6425
23.600000	83.216	63.3706
24.000000	83.319	62.9968
24.299999	83.407	62.6299
24.700001	83.519	61.9864
25.000000	83.589	61.4300
25.400000	83.657	60.6983
25.799999	83.708	60.0937
26.200001	83.760	59.6463
26.500000	83.810	59.3735
26.900000	83.891	59.0096
27.200001	83.959	58.7000
27.600000	84.049	58.2452
28.000000	84.136	57.7912
28.500000	84.253	57.2765
29.000000	84.393	56.7298
29.500000	84.547	55.9733
30.000000	84.680	54.9390
30.400000	84.752	54.0016
30.700001	84.782	53.3176
31.100000	84.798	52.5154
31.500000	84.797	51.8788
32.000000	84.794	51.2816
32.500000	84.794	50.8098
33.000000	84.794	50.3884
33.500000	84.787	50.0130
34.000000	84.773	49.7218
34.500000	84.755	49.5479
35.000000	84.745	49.4879
35.500000	84.751	49.4981
36.000000	84.773	49.5111
36.500000	84.806	49.4752
37.000000	84.841	49.3839
37.500000	84.870	49.2781
38.200001	84.902	49.2258
38.700001	84.927	49.3116
39.500000	84.986	49.6342
40.000000	85.036	49.9233
40.599998	85.111	50.3881
41.200001	85.220	50.9750
41.799999	85.376	51.5289
42.500000	85.598	51.8680
43.099998	85.789	51.8595
43.700001	85.970	51.6780
44.400002	86.174	51.2859
45.000000	86.337	50.7628
45.500000	86.455	50.2298
46.200001	86.596	49.4569
46.799999	86.704	48.8385
47.500000	86.832	48.1651
48.200001	86.969	47.4847
48.700001	87.072	46.9422
49.400002	87.208	46.0690
50.000000	87.306	45.2736
50.799999	87.415	44.2747
51.500000	87.501	43.4754
52.200001	87.582	42.7166
53.000000	87.673	41.8548
53.799999	87.758	40.8946
54.500000	87.811	39.9790
55.200001	87.848	39.0706
56.000000	87.876	37.9947
57.000000	87.859	36.6415
58.000000	87.811	35.7927
59.000000	87.832	35.1810
60.000000	87.868	34.2818
60.799999	87.868	33.5901
61.500000	87.865	33.1207
62.200001	87.868	32.7409
63.000000	87.882	32.3503
64.000000	87.905	31.8230
65.000000	87.921	31.2677
66.000000	87.934	30.6598
67.000000	87.924	29.9229
68.000000	87.879	29.2977
69.000000	87.834	28.8905
70.000000	87.810	28.6154
71.000000	87.812	28.3620
72.000000	87.824	28.0577
73.000000	87.841	27.8044
74.000000	87.876	27.5349
75.000000	87.909	27.1641
76.199997	87.931	26.6899
77.500000	87.938	26.2211
78.800003	87.944	25.8102
80.000000	87.951	25.4000
81.199997	87.955	25.0054
82.500000	87.966	24.6019
83.800003	87.981	24.2034
85.000000	87.993	23.8273
86.199997	87.999	23.4744
87.500000	88.003	23.1056
88.500000	88.000	22.8304
90.000000	87.994	22.4626
91.199997	87.991	22.1923
92.500000	87.991	21.9070
93.800003	87.992	21.6138
95.000000	87.988	21.3582
96.199997	87.982	21.1346
97.500000	87.974	20.9302
98.800003	87.970	20.7478
100.000000	87.969	20.5712
101.500000	87.971	20.3486
103.000000	87.975	20.1240
104.400002	87.979	19.9219
106.000000	87.985	19.6781
107.500000	87.988	19.4327
109.000000	87.990	19.1914
110.599998	87.991	18.9467
112.000000	87.993	18.7501
113.800003	87.992	18.5150
115.000000	87.987	18.3708
117.199997	87.977	18.1329
118.000000	87.974	18.0475
120.599998	87.979	17.8156
122.000000	87.996	17.7039
124.099998	88.027	17.4613
125.000000	88.034	17.3310
126.500000	88.035	17.1115
128.000000	88.028	16.9176
131.500000	88.006	16.4701
132.000000	88.003	16.4143
134.000000	87.996	16.2233
136.000000	87.995	16.0571
138.000000	87.994	15.8921
140.000000	87.991	15.7181
143.000000	87.977	15.4995
145.000000	87.969	15.3617
147.500000	87.953	15.2161
150.000000	87.950	15.1237
152.500000	87.947	14.9871
155.000000	87.935	14.8615
157.500000	87.925	14.7761
160.000000	87.927	14.7044
162.500000	87.924	14.6182
165.000000	87.913	14.5311
167.500000	87.902	14.4246
170.000000	87.900	14.3154
172.500000	87.902	14.2414
175.000000	87.899	14.2094
177.500000	87.893	14.1782
180.000000	87.887	14.1175
182.500000	87.885	14.0513
185.000000	87.882	13.9983
187.500000	87.880	13.9651
190.000000	87.877	13.9298
192.500000	87.873	13.8975
195.000000	87.869	13.8546
197.500000	87.860	13.7982
200.000000	87.846	13.7589
203.000000	87.830	13.7863
206.000000	87.819	13.8414
209.000000	87.814	13.9240
212.000000	87.816	13.9635
214.000000	87.813	14.0220
218.000000	87.820	14.2510
220.000000	87.825	14.3224
224.000000	87.851	14.4547
227.000000	87.862	14.4141
230.000000	87.866	14.5203
233.000000	87.895	14.5889
236.000000	87.928	14.4488
240.000000	87.929	14.2219
243.000000	87.931	14.2806
247.000000	87.965	14.1123
250.000000	87.955	13.8557
254.000000	87.923	13.9567
258.000000	87.919	14.0977
262.000000	87.906	14.1520
265.000000	87.895	14.2043
269.000000	87.883	14.2779
272.000000	87.881	14.3763
276.000000	87.893	14.4860
280.000000	87.898	14.5171
285.000000	87.896	14.6316
290.000000	87.902	14.9238
295.000000	87.936	15.1272
300.000000	87.963	15.0638
304.000000	87.991	14.9877
307.000000	88.011	14.8992
311.000000	88.021	14.7574
315.000000	88.018	14.6804
320.000000	88.029	14.6249
325.000000	88.038	14.5781
330.000000	88.004	14.5972
335.000000	87.975	14.7091
340.000000	87.969	14.8128
345.000000	87.951	14.9105
350.000000	87.937	15.0309
355.000000	87.950	15.1643
360.000000	87.969	15.2463
365.000000	87.980	15.3536
370.000000	87.987	15.5239
375.000000	87.992	15.6316
382.000000	87.994	15.6473
387.000000	87.996	15.6034
395.000000	87.979	15.5964
400.000000	87.953	15.6702
406.000000	87.916	15.7886
412.000000	87.859	16.0775
418.000000	87.789	16.6069
425.000000	87.755	17.3409
431.000000	87.751	18.0325
437.000000	87.765	18.8215
444.000000	87.821	19.9087
450.000000	87.900	20.8393
455.000000	88.006	21.4742
462.000000	88.206	22.0000
468.000000	88.383	22.0089
475.000000	88.556	21.5637
482.000000	88.683	20.9165
487.000000	88.743	20.4414
494.000000	88.782	19.7852
500.000000	88.785	19.3254
508.000000	88.778	18.9631
515.000000	88.781	18.7872
522.000000	88.790	18.6662
530.000000	88.803	18.5090
538.000000	88.822	18.2928
545.000000	88.830	18.0406
552.000000	88.825	17.8294
560.000000	88.811	17.6346
570.000000	88.780	17.4604
580.000000	88.753	17.3933
590.000000	88.726	17.3060
600.000000	88.681	17.2877
608.000000	88.656	17.4990
615.000000	88.663	17.6449
622.000000	88.671	17.6368
630.000000	88.662	17.5403
640.000000	88.610	17.4446
650.000000	88.541	17.5229
660.000000	88.467	17.7250
670.000000	88.370	18.2497
680.000000	88.294	19.3263
690.000000	88.311	20.6685
700.000000	88.415	21.8295
710.000000	88.575	22.6581
720.000000	88.755	23.0556
730.000000	88.925	23.0424
740.000000	89.068	22.6799
750.000000	89.167	22.1024
762.000000	89.234	21.4088
775.000000	89.249	20.8142
788.000000	89.244	20.5867
800.000000	89.266	20.5622
812.000000	89.308	20.5505
825.000000	89.372	20.6479
838.000000	89.529	20.7572
850.000000	89.720	20.0352
862.000000	89.832	18.6514
875.000000	89.857	17.0483
885.000000	89.840	15.7983
900.000000	89.711	13.8942
912.000000	89.508	12.9991
925.000000	89.350	12.8710
938.000000	89.283	12.3347
950.000000	89.159	11.5278
962.000000	88.985	11.0042
975.000000	88.790	10.7475
988.000000	88.589	10.5934
1000.000000	88.373	10.6823
1015.000000	88.114	11.5414
1030.000000	88.004	12.8613
1044.000000	87.987	13.3635
1060.000000	87.913	13.4803
1075.000000	87.829	13.5732
1090.000000	87.694	13.4529
1106.000000	87.485	13.8109
1120.000000	87.333	14.3796
1138.000000	87.125	15.0070
1150.000000	86.949	15.7815
1172.000000	86.743	18.4225
1180.000000	86.745	19.3499
1206.000000	86.776	21.2267
1220.000000	86.779	22.3390
1241.000000	86.923	23.7627
1250.000000	87.007	23.9342
1265.000000	87.098	23.7438
1280.000000	87.126	23.2814
1315.000000	86.786	21.8536
1320.000000	86.687	21.9695
1340.000000	86.322	23.5655
1360.000000	86.157	26.3932
1380.000000	86.246	28.6091
1400.000000	86.300	29.9019
1430.000000	86.429	32.2365
1450.000000	86.635	33.0027
1475.000000	86.746	32.6231
1500.000000	86.667	32.5965
1525.000000	86.541	33.4292
1550.000000	86.526	35.0187
1575.000000	86.621	35.9922
1600.000000	86.703	35.9998
1625.000000	86.602	35.5088
1650.000000	86.289	36.0258
1675.000000	86.039	38.6825
1700.000000	86.079	41.3337
1725.000000	86.149	43.4153
1750.000000	86.300	45.3960
1775.000000	86.516	46.7014
1800.000000	86.667	47.0782
1825.000000	86.673	47.7377
1850.000000	86.721	49.0731
1875.000000	86.832	50.1928
1900.000000	86.906	51.1184
1925.000000	86.984	52.4644
1950.000000	87.165	53.7719
1975.000000	87.344	54.2785
2000.000000	87.430	54.6535
2030.000000	87.531	55.4413
2060.000000	87.600	55.4973
2090.000000	87.374	56.2824
2120.000000	87.193	59.7516
2140.000000	87.276	62.7460
2180.000000	87.870	67.9222
2200.000000	88.280	69.5011
2240.000000	89.045	70.5709
2270.000000	89.414	70.4736
2300.000000	89.692	71.2487
2330.000000	90.114	72.6247
2360.000000	90.589	73.2927
2400.000000	91.249	74.4491
2430.000000	91.929	74.7391
2470.000000	92.744	72.8983
2500.000000	93.204	71.0523
2540.000000	93.763	68.7967
2580.000000	94.315	66.1669
2620.000000	94.762	62.8615
2650.000000	94.988	60.3713
2690.000000	95.224	57.8331
2720.000000	95.475	56.2699
2760.000000	95.841	53.3913
2800.000000	96.118	49.8978
2850.000000	96.257	45.1123
2900.000000	96.140	41.7043
2950.000000	96.120	40.4055
3000.000000	96.372	39.0598
3040.000000	96.624	37.1302
3070.000000	96.775	35.2822
3110.000000	96.903	32.8182
3150.000000	97.025	30.6477
3200.000000	97.228	27.7900
3250.000000	97.471	24.1498
3300.000000	97.570	18.7908
3350.000000	97.182	13.3796
3400.000000	96.470	12.3622
3450.000000	96.309	13.9773
3500.000000	96.513	13.4659
3550.000000	96.678	11.3529
3600.000000	96.689	8.2965
3650.000000	96.502	5.4472
3700.000000	96.204	3.0668
3750.000000	95.686	1.6897
3820.000000	94.954	4.9623
3870.000000	95.017	9.1331
3950.000000	96.088	12.1606
4000.000000	96.720	9.0300
4060.000000	96.751	3.4440
4120.000000	96.363	0.8719
4180.000000	96.059	0.7178
4250.000000	95.990	1.8033
4310.000000	96.144	2.4603
4370.000000	96.522	2.6541
4440.000000	97.016	-0.6564
4500.000000	96.931	-4.6158
4550.000000	96.741	-6.4032
4620.000000	96.551	-8.5190
4680.000000	96.320	-10.2604
4750.000000	95.971	-11.3308
4820.000000	95.728	-11.7079
4870.000000	95.560	-12.3572
4940.000000	95.195	-12.7811
5000.000000	94.867	-11.9676
5080.000000	94.683	-9.6210
5150.000000	94.790	-8.4364
5220.000000	94.933	-8.5090
5300.000000	95.000	-9.9205
5380.000000	94.853	-11.5526
5450.000000	94.615	-12.1649
5520.000000	94.463	-12.1671
5600.000000	94.330	-12.7335
5700.000000	94.132	-13.7577
5800.000000	93.815	-14.9498
5900.000000	93.477	-15.4140
6000.000000	93.187	-16.5675
6080.000000	92.822	-17.5282
6150.000000	92.451	-17.9247
6220.000000	92.084	-17.9532
6300.000000	91.654	-17.7176
6400.000000	91.135	-16.4988
6500.000000	90.802	-14.7902
6600.000000	90.582	-13.8663
6700.000000	90.345	-13.2715
6800.000000	90.140	-12.5537
6900.000000	90.004	-12.1520
7000.000000	89.840	-12.0486
7100.000000	89.737	-11.6647
7200.000000	89.686	-12.0692
7300.000000	89.517	-12.2460
7400.000000	89.485	-11.4787
7500.000000	89.596	-11.5896
7620.000000	89.657	-11.8280
7750.000000	89.983	-11.1262
7880.000000	90.702	-11.9767
8000.000000	91.444	-15.3760
8120.000000	92.129	-21.5774
8250.000000	92.270	-31.7202
8380.000000	91.600	-38.9193
8500.000000	91.142	-41.9305
8620.000000	90.906	-46.6731
8750.000000	90.347	-53.7748
8850.000000	89.492	-59.4721
9000.000000	87.195	-61.1310
9120.000000	85.289	-54.2749
9250.000000	84.165	-45.8803
9380.000000	83.167	-36.9102
9500.000000	82.622	-24.8864
9620.000000	82.681	-15.9353
9750.000000	82.681	-7.2003
9880.000000	83.061	2.7529
10000.000000	83.718	9.1354
10150.000000	83.992	14.3498
10300.000000	84.276	22.5388
10440.000000	85.030	30.2736
10600.000000	86.059	36.4582
10750.000000	87.196	41.0301
10900.000000	88.597	42.3599
11060.000000	89.559	37.1399
11200.000000	89.519	31.3008
11380.000000	88.774	29.4670
11500.000000	88.437	31.8345
11720.000000	88.689	36.6751
11800.000000	88.968	38.0630
12060.000000	90.948	40.7066
12200.000000	92.604	37.2933
12410.000000	94.821	20.9929
12500.000000	95.384	10.0117
12650.000000	95.586	-10.9573
12800.000000	94.915	-31.4331
13150.000000	91.013	-64.3502
13200.000000	90.284	-66.7638
13400.000000	87.312	-70.5433
13600.000000	84.852	-69.7972
13800.000000	82.492	-64.4941
14000.000000	80.337	-50.6351
14300.000000	80.661	-16.4587
14500.000000	84.367	1.7859
14750.000000	87.246	-8.6007
15000.000000	86.236	-30.4797
15250.000000	83.186	-37.4083
15500.000000	78.606	-15.5764
15750.000000	76.914	22.0896
16000.000000	78.881	42.7116
16250.000000	79.882	47.2101
16500.000000	79.714	51.3183
16750.000000	79.522	56.0146
17000.000000	79.148	56.5657
17250.000000	77.839	54.0130
17500.000000	75.321	55.5860
17750.000000	71.681	71.7377
18000.000000	68.329	102.7473
18250.000000	68.351	120.5279
18500.000000	69.103	119.4727
18750.000000	70.065	110.8195
19000.000000	71.517	94.8907
19250.000000	71.870	71.5277
19500.000000	70.612	50.7058
19750.000000	68.199	36.3306
