* Measurement data measured by REW V5.20.13
* Source: EXCL: Headset (KM-HIFI-384KHZ), MICROPHONE (Master Volume), 0, volume: 1.000
* Format: 256k Log Swept Sine, 1 sweep at -13.0 dBFS with no timing reference
* Dated: Sep 8, 2023 11:50:10 AM
* REW Settings:
*  C-weighting compensation: Off
*  Target level: 75.0 dB
* Note: 
* Measurement: Sep 8
* Smoothing: 1/24 octave
* Frequency Step: 1/48 octave
* Start Frequency: 20.000 Hz
*
* Freq(Hz)	SPL(dB)	Phase(degrees)
20.000000	82.479	68.8230
20.299999	82.543	68.3935
20.600000	82.621	68.0161
20.900000	82.713	67.6267
21.200001	82.813	67.1788
21.400000	82.880	66.8382
21.799999	83.008	66.0829
22.000000	83.065	65.6885
22.400000	83.169	64.9149
22.700001	83.240	64.3828
23.000000	83.311	63.8997
23.299999	83.386	63.4522
23.600000	83.466	63.0123
24.000000	83.582	62.3785
24.299999	83.670	61.8350
24.700001	83.777	61.0065
25.000000	83.843	60.3316
25.400000	83.907	59.4278
25.799999	83.942	58.6223
26.200001	83.959	58.0099
26.500000	83.971	57.7054
26.900000	84.001	57.4852
27.200001	84.041	57.4153
27.600000	84.123	57.3480
28.000000	84.233	57.2093
28.500000	84.386	56.8428
29.000000	84.533	56.2882
29.500000	84.665	55.6400
30.000000	84.782	54.9487
30.400000	84.867	54.3496
30.700001	84.921	53.8671
31.100000	84.974	53.1991
31.500000	85.005	52.5590
32.000000	85.016	51.8878
32.500000	85.017	51.3822
33.000000	85.016	50.9656
33.500000	85.012	50.5679
34.000000	84.996	50.2096
34.500000	84.974	49.9529
35.000000	84.957	49.8002
35.500000	84.954	49.6871
36.000000	84.958	49.5711
36.500000	84.966	49.4842
37.000000	84.982	49.4744
37.500000	85.017	49.5262
38.200001	85.097	49.5835
38.700001	85.165	49.5890
39.500000	85.284	49.6177
40.000000	85.366	49.6397
40.599998	85.464	49.6407
41.200001	85.550	49.6940
41.799999	85.641	49.9021
42.500000	85.784	50.1962
43.099998	85.929	50.2425
43.700001	86.061	50.0727
44.400002	86.190	49.8378
45.000000	86.307	49.6775
45.500000	86.418	49.4766
46.200001	86.578	48.9673
46.799999	86.697	48.3724
47.500000	86.812	47.6835
48.200001	86.920	47.1055
48.700001	87.004	46.7328
49.400002	87.128	46.1803
50.000000	87.230	45.6592
50.799999	87.349	44.9776
51.500000	87.450	44.4395
52.200001	87.558	43.8801
53.000000	87.679	43.0857
53.799999	87.778	42.1212
54.500000	87.842	41.2447
55.200001	87.899	40.3941
56.000000	87.964	39.3503
57.000000	88.005	37.9000
58.000000	87.993	36.7905
59.000000	88.012	36.1097
60.000000	88.065	35.3748
60.799999	88.092	34.7202
61.500000	88.099	34.2019
62.200001	88.097	33.7787
63.000000	88.096	33.4018
64.000000	88.107	33.0145
65.000000	88.140	32.6021
66.000000	88.189	32.0129
67.000000	88.224	31.2287
68.000000	88.228	30.4370
69.000000	88.215	29.8036
70.000000	88.205	29.3128
71.000000	88.196	28.8886
72.000000	88.187	28.5265
73.000000	88.180	28.2201
74.000000	88.178	27.9430
75.000000	88.186	27.6556
76.199997	88.202	27.2415
77.500000	88.216	26.7443
78.800003	88.224	26.2826
80.000000	88.233	25.8998
81.199997	88.241	25.5225
82.500000	88.244	25.1300
83.800003	88.246	24.7647
85.000000	88.252	24.4252
86.199997	88.258	24.0663
87.500000	88.263	23.7108
88.500000	88.269	23.4589
90.000000	88.276	23.0938
91.199997	88.279	22.8212
92.500000	88.279	22.5292
93.800003	88.276	22.2237
95.000000	88.268	21.9347
96.199997	88.257	21.6893
97.500000	88.251	21.4753
98.800003	88.249	21.2843
100.000000	88.247	21.1131
101.500000	88.241	20.9442
103.000000	88.241	20.7829
104.400002	88.241	20.5637
106.000000	88.233	20.3273
107.500000	88.234	20.1743
109.000000	88.246	20.0306
110.599998	88.262	19.8653
112.000000	88.277	19.7394
113.800003	88.302	19.5687
115.000000	88.320	19.4284
117.199997	88.349	19.0883
118.000000	88.355	18.9429
120.599998	88.362	18.4964
122.000000	88.364	18.2753
124.099998	88.372	17.9115
125.000000	88.372	17.7492
126.500000	88.366	17.5286
128.000000	88.361	17.3800
131.500000	88.360	17.1025
132.000000	88.360	17.0594
134.000000	88.358	16.8796
136.000000	88.351	16.6849
138.000000	88.340	16.4816
140.000000	88.333	16.2709
143.000000	88.326	15.9690
145.000000	88.321	15.8509
147.500000	88.314	15.7443
150.000000	88.304	15.5961
152.500000	88.301	15.4424
155.000000	88.304	15.2941
157.500000	88.302	15.1826
160.000000	88.298	15.0783
162.500000	88.296	14.9397
165.000000	88.293	14.7905
167.500000	88.287	14.6405
170.000000	88.276	14.5192
172.500000	88.269	14.4405
175.000000	88.264	14.4035
177.500000	88.261	14.3770
180.000000	88.255	14.3387
182.500000	88.252	14.2816
185.000000	88.251	14.2035
187.500000	88.248	14.1578
190.000000	88.247	14.1074
192.500000	88.243	14.0658
195.000000	88.245	14.0501
197.500000	88.245	13.9803
200.000000	88.235	13.9407
203.000000	88.227	13.9371
206.000000	88.223	13.9169
209.000000	88.218	13.8804
212.000000	88.208	13.8593
214.000000	88.201	13.8761
218.000000	88.194	13.9787
220.000000	88.198	14.0351
224.000000	88.210	14.0907
227.000000	88.215	14.1203
230.000000	88.220	14.1518
233.000000	88.229	14.1652
236.000000	88.240	14.1164
240.000000	88.241	14.0024
243.000000	88.242	14.0003
247.000000	88.255	13.9871
250.000000	88.262	13.9191
254.000000	88.259	13.8133
258.000000	88.248	13.7850
262.000000	88.236	13.8401
265.000000	88.221	13.9025
269.000000	88.197	14.0037
272.000000	88.186	14.0910
276.000000	88.180	14.2109
280.000000	88.177	14.3399
285.000000	88.168	14.6359
290.000000	88.177	15.0548
295.000000	88.230	15.4329
300.000000	88.298	15.6571
304.000000	88.343	15.6943
307.000000	88.378	15.6499
311.000000	88.429	15.5024
315.000000	88.465	15.2840
320.000000	88.476	15.0237
325.000000	88.471	14.8296
330.000000	88.463	14.7118
335.000000	88.449	14.6794
340.000000	88.441	14.7091
345.000000	88.442	14.7744
350.000000	88.446	14.8378
355.000000	88.456	14.8719
360.000000	88.467	14.8799
365.000000	88.474	14.8747
370.000000	88.473	14.8689
375.000000	88.467	14.8969
382.000000	88.477	15.0316
387.000000	88.500	15.0716
395.000000	88.517	14.8831
400.000000	88.507	14.7725
406.000000	88.489	14.6661
412.000000	88.465	14.6620
418.000000	88.449	14.7839
425.000000	88.444	14.8549
431.000000	88.434	14.8245
437.000000	88.411	14.7989
444.000000	88.368	14.8278
450.000000	88.321	14.9368
455.000000	88.277	15.1027
462.000000	88.215	15.5180
468.000000	88.179	16.0393
475.000000	88.173	16.7411
482.000000	88.210	17.4390
487.000000	88.256	17.8233
494.000000	88.324	18.1508
500.000000	88.374	18.2721
508.000000	88.414	18.3328
515.000000	88.430	18.4579
522.000000	88.448	18.6647
530.000000	88.482	18.9104
538.000000	88.516	19.0872
545.000000	88.535	19.2671
552.000000	88.562	19.5414
560.000000	88.621	19.8527
570.000000	88.714	19.9862
580.000000	88.790	19.8528
590.000000	88.837	19.6838
600.000000	88.877	19.5150
608.000000	88.903	19.2661
615.000000	88.908	18.9994
622.000000	88.897	18.8076
630.000000	88.881	18.6535
640.000000	88.835	18.4609
650.000000	88.768	18.5237
660.000000	88.716	18.7498
670.000000	88.676	19.0302
680.000000	88.629	19.3289
690.000000	88.564	19.8116
700.000000	88.516	20.5837
710.000000	88.494	21.5105
720.000000	88.508	22.6679
730.000000	88.595	23.9506
740.000000	88.771	25.0623
750.000000	89.010	25.6084
762.000000	89.282	25.3571
775.000000	89.481	24.4661
788.000000	89.590	23.4444
800.000000	89.612	22.5212
812.000000	89.562	21.9587
825.000000	89.495	22.0984
838.000000	89.533	22.8282
850.000000	89.688	23.2781
862.000000	89.898	23.1212
875.000000	90.120	22.2169
885.000000	90.255	21.0152
900.000000	90.311	18.6151
912.000000	90.217	16.9345
925.000000	90.063	15.7751
938.000000	89.925	15.0356
950.000000	89.802	14.4835
962.000000	89.695	14.0954
975.000000	89.604	13.5737
988.000000	89.494	12.8079
1000.000000	89.323	12.1017
1015.000000	89.051	11.9789
1030.000000	88.867	12.4583
1044.000000	88.779	12.6511
1060.000000	88.668	12.2204
1075.000000	88.448	11.6265
1090.000000	88.114	11.6162
1106.000000	87.742	12.9297
1120.000000	87.572	14.7934
1138.000000	87.525	16.3849
1150.000000	87.475	16.9946
1172.000000	87.312	18.0646
1180.000000	87.231	18.6055
1206.000000	87.010	21.3011
1220.000000	86.998	23.1586
1241.000000	87.145	25.2501
1250.000000	87.202	25.7619
1265.000000	87.264	26.6570
1280.000000	87.373	27.6767
1315.000000	87.719	27.9038
1320.000000	87.732	27.6971
1340.000000	87.661	27.2527
1360.000000	87.591	27.9784
1380.000000	87.661	28.3851
1400.000000	87.633	28.1935
1430.000000	87.549	28.6287
1450.000000	87.491	28.7490
1475.000000	87.337	29.2537
1500.000000	87.243	30.3910
1525.000000	87.178	31.0790
1550.000000	87.061	32.2344
1575.000000	87.032	33.3303
1600.000000	86.905	34.4631
1625.000000	86.903	36.5818
1650.000000	87.037	37.4775
1675.000000	87.008	37.7971
1700.000000	86.940	38.4577
1725.000000	86.726	39.5012
1750.000000	86.583	42.3027
1775.000000	86.686	44.9038
1800.000000	86.813	46.8835
1825.000000	87.015	48.5853
1850.000000	87.149	49.4133
1875.000000	87.178	50.7363
1900.000000	87.275	52.8665
1925.000000	87.526	54.9851
1950.000000	87.860	56.4438
1975.000000	88.196	56.9553
2000.000000	88.438	57.0186
2030.000000	88.706	56.8932
2060.000000	88.838	56.1711
2090.000000	88.781	56.1817
2120.000000	88.717	57.8783
2140.000000	88.817	59.5542
2180.000000	89.153	61.6709
2200.000000	89.321	62.8165
2240.000000	89.813	64.3706
2270.000000	90.071	64.8975
2300.000000	90.334	65.9197
2330.000000	90.636	67.0412
2360.000000	91.010	68.4742
2400.000000	91.720	70.0114
2430.000000	92.320	70.1237
2470.000000	93.059	69.1571
2500.000000	93.609	68.0065
2540.000000	94.261	65.1448
2580.000000	94.662	61.9161
2620.000000	94.989	59.4176
2650.000000	95.257	57.8097
2690.000000	95.684	55.2600
2720.000000	95.938	52.5257
2760.000000	96.051	48.8907
2800.000000	96.061	46.6857
2850.000000	96.300	44.9808
2900.000000	96.645	41.8601
2950.000000	96.774	37.9414
3000.000000	96.687	35.0184
3040.000000	96.672	34.2484
3070.000000	96.801	33.7521
3110.000000	97.038	32.3455
3150.000000	97.259	30.4626
3200.000000	97.531	27.7229
3250.000000	97.765	24.1285
3300.000000	97.834	20.2014
3350.000000	97.793	16.3725
3400.000000	97.584	12.9838
3450.000000	97.285	11.1178
3500.000000	97.175	10.7087
3550.000000	97.334	9.2694
3600.000000	97.324	6.1273
3650.000000	97.082	4.0008
3700.000000	96.922	3.0120
3750.000000	96.883	1.8575
3820.000000	96.830	-0.8478
3870.000000	96.657	-3.3444
3950.000000	95.980	-5.7916
4000.000000	95.524	-5.1632
4060.000000	95.155	-2.9911
4120.000000	95.139	0.2789
4180.000000	95.557	1.8099
4250.000000	95.830	-0.2657
4310.000000	95.667	-1.3761
4370.000000	95.562	-0.7281
4440.000000	95.676	0.1150
4500.000000	95.822	0.0872
4550.000000	95.926	0.0796
4620.000000	96.216	-0.2057
4680.000000	96.444	-1.9644
4750.000000	96.493	-4.4280
4820.000000	96.437	-6.6152
4870.000000	96.307	-8.0022
4940.000000	96.068	-8.7460
5000.000000	95.995	-8.6031
5080.000000	96.128	-9.5658
5150.000000	96.100	-12.0725
5220.000000	95.868	-14.1875
5300.000000	95.534	-15.8621
5380.000000	95.180	-16.9887
5450.000000	94.858	-17.5762
5520.000000	94.565	-17.8698
5600.000000	94.253	-18.2303
5700.000000	93.871	-18.6067
5800.000000	93.466	-19.2921
5900.000000	92.969	-19.5939
6000.000000	92.476	-19.4744
6080.000000	92.093	-19.3403
6150.000000	91.714	-19.0974
6220.000000	91.322	-18.3568
6300.000000	90.911	-17.1335
6400.000000	90.480	-14.8949
6500.000000	90.279	-12.6851
6600.000000	90.180	-11.7629
6700.000000	89.996	-11.5543
6800.000000	89.742	-11.2245
6900.000000	89.459	-10.5074
7000.000000	89.223	-9.1062
7100.000000	89.125	-7.5949
7200.000000	89.103	-6.2099
7300.000000	89.215	-4.7904
7400.000000	89.466	-4.0878
7500.000000	89.755	-4.3588
7620.000000	90.032	-5.5871
7750.000000	90.243	-6.7679
7880.000000	90.510	-7.2131
8000.000000	90.966	-6.9916
8120.000000	91.734	-7.4970
8250.000000	92.736	-10.2156
8380.000000	93.796	-15.3467
8500.000000	94.685	-23.1185
8620.000000	95.257	-33.5067
8750.000000	95.495	-47.4435
8850.000000	95.195	-59.9991
9000.000000	93.749	-78.3450
9120.000000	91.888	-91.0521
9250.000000	89.321	-104.4460
9380.000000	85.847	-113.0889
9500.000000	81.349	-94.3972
9620.000000	76.477	-38.1361
9750.000000	77.535	19.4280
9880.000000	81.065	41.2481
10000.000000	83.372	42.5094
10150.000000	85.436	38.9433
10300.000000	86.919	33.7552
10440.000000	87.564	26.5046
10600.000000	87.510	17.5033
10750.000000	86.430	11.4592
10900.000000	84.359	24.8494
11060.000000	85.233	51.5897
11200.000000	87.363	57.0995
11380.000000	88.444	48.0332
11500.000000	88.333	42.6744
11720.000000	87.595	40.7908
11800.000000	87.421	42.3394
12060.000000	88.447	50.1647
12200.000000	90.043	51.2227
12410.000000	92.754	42.0648
12500.000000	93.683	33.3069
12650.000000	94.457	13.2695
12800.000000	94.044	-8.0985
13150.000000	90.216	-34.8049
13200.000000	89.649	-36.0664
13400.000000	87.842	-38.0598
13600.000000	86.851	-37.5263
13800.000000	86.541	-38.1841
14000.000000	86.402	-43.1159
14300.000000	84.340	-52.0279
14500.000000	81.606	-33.9569
14750.000000	82.210	-3.8022
15000.000000	83.575	-4.6926
15250.000000	82.496	-8.3188
15500.000000	80.658	-1.0779
15750.000000	78.974	12.6359
16000.000000	78.318	32.6733
16250.000000	79.429	47.5908
16500.000000	80.375	48.3082
16750.000000	79.953	38.2167
17000.000000	76.948	36.1317
17250.000000	72.351	58.4998
17500.000000	69.193	84.0861
17750.000000	66.754	106.6174
18000.000000	64.913	159.1186
18250.000000	67.577	-157.5930
18500.000000	69.867	-155.2708
18750.000000	70.945	-170.7345
19000.000000	71.506	165.1745
19250.000000	71.511	135.5479
19500.000000	70.785	105.1736
19750.000000	68.924	80.3053
