* Measurement data measured by REW V5.20.13
* Source: Headset (KM-HIFI-384KHZ), MICROPHONE (Master Volume), R, volume: 0.250
* Format: 256k Log Swept Sine, 1 sweep at -13.0 dBFS with no timing reference
* Dated: Jul 19, 2023 3:23:21 AM
* REW Settings:
*  C-weighting compensation: Off
*  Target level: 75.0 dB
* Note: 
* Measurement: Philphone (300?) R
* Smoothing: 1/12 octave
* Frequency Step: 1/48 octave
* Start Frequency: 20.000 Hz
*
* Freq(Hz)	SPL(dB)	Phase(degrees)
20.000000	89.005	-79.9332
20.299999	89.164	-80.7913
20.600000	89.323	-81.6179
20.900000	89.484	-82.4250
21.200001	89.645	-83.2266
21.400000	89.752	-83.7653
21.799999	89.964	-84.8609
22.000000	90.068	-85.4198
22.400000	90.268	-86.5556
22.700001	90.410	-87.4120
23.000000	90.545	-88.2587
23.299999	90.674	-89.0857
23.600000	90.800	-89.8901
24.000000	90.963	-90.9323
24.299999	91.083	-91.7023
24.700001	91.240	-92.7283
25.000000	91.354	-93.5006
25.400000	91.499	-94.5252
25.799999	91.638	-95.5220
26.200001	91.774	-96.4765
26.500000	91.879	-97.1721
26.900000	92.023	-98.1007
27.200001	92.135	-98.8254
27.600000	92.284	-99.8564
28.000000	92.426	-100.9641
28.500000	92.584	-102.4054
29.000000	92.722	-103.8185
29.500000	92.849	-105.1481
30.000000	92.975	-106.4070
30.400000	93.077	-107.3961
30.700001	93.152	-108.1397
31.100000	93.248	-109.1339
31.500000	93.338	-110.1204
32.000000	93.443	-111.3220
32.500000	93.541	-112.4784
33.000000	93.634	-113.5949
33.500000	93.721	-114.6767
34.000000	93.803	-115.7204
34.500000	93.882	-116.7247
35.000000	93.961	-117.7023
35.500000	94.040	-118.6791
36.000000	94.119	-119.6761
36.500000	94.194	-120.6990
37.000000	94.263	-121.7412
37.500000	94.326	-122.7923
38.200001	94.404	-124.2545
38.700001	94.453	-125.2720
39.500000	94.528	-126.8224
40.000000	94.577	-127.7481
40.599998	94.639	-128.8352
41.200001	94.703	-129.9126
41.799999	94.767	-130.9873
42.500000	94.837	-132.2402
43.099998	94.890	-133.3040
43.700001	94.936	-134.3355
44.400002	94.984	-135.4832
45.000000	95.023	-136.4350
45.500000	95.053	-137.2214
46.200001	95.092	-138.3119
46.799999	95.122	-139.2305
47.500000	95.157	-140.3093
48.200001	95.187	-141.4348
48.700001	95.201	-142.2563
49.400002	95.206	-143.3675
50.000000	95.203	-144.2412
50.799999	95.200	-145.3029
51.500000	95.202	-146.1760
52.200001	95.206	-147.0198
53.000000	95.212	-147.9729
53.799999	95.216	-148.9446
54.500000	95.211	-149.8073
55.200001	95.198	-150.6643
56.000000	95.172	-151.6277
57.000000	95.121	-152.7643
58.000000	95.055	-153.7027
59.000000	95.000	-154.3885
60.000000	94.977	-154.8976
60.799999	94.986	-155.2720
61.500000	95.011	-155.6478
62.200001	95.043	-156.1032
63.000000	95.076	-156.7111
64.000000	95.107	-157.5508
65.000000	95.125	-158.4428
66.000000	95.131	-159.3794
67.000000	95.129	-160.3653
68.000000	95.114	-161.3967
69.000000	95.085	-162.4359
70.000000	95.042	-163.4191
71.000000	94.990	-164.2982
72.000000	94.933	-165.0539
73.000000	94.874	-165.6775
74.000000	94.821	-166.1779
75.000000	94.777	-166.5936
76.199997	94.738	-167.0581
77.500000	94.707	-167.5942
78.800003	94.678	-168.1649
80.000000	94.653	-168.6948
81.199997	94.631	-169.2274
82.500000	94.613	-169.8217
83.800003	94.596	-170.4440
85.000000	94.579	-171.0427
86.199997	94.558	-171.6554
87.500000	94.529	-172.3148
88.500000	94.501	-172.8040
90.000000	94.450	-173.4815
91.199997	94.405	-173.9606
92.500000	94.357	-174.4261
93.800003	94.314	-174.8737
95.000000	94.280	-175.3055
96.199997	94.249	-175.7664
97.500000	94.218	-176.2944
98.800003	94.185	-176.8381
100.000000	94.152	-177.3266
101.500000	94.106	-177.8950
103.000000	94.054	-178.4351
104.400002	93.998	-178.9304
106.000000	93.922	-179.4866
107.500000	93.840	-179.9875
109.000000	93.751	179.5758
110.599998	93.657	179.2169
112.000000	93.583	178.9689
113.800003	93.497	178.6951
115.000000	93.442	178.5303
117.199997	93.341	178.2900
118.000000	93.304	178.2399
120.599998	93.201	178.2480
122.000000	93.164	178.3004
124.099998	93.131	178.2997
125.000000	93.121	178.2513
126.500000	93.102	178.1109
128.000000	93.080	177.9242
131.500000	93.011	177.4945
132.000000	93.000	177.4420
134.000000	92.957	177.2542
136.000000	92.915	177.0949
138.000000	92.875	176.9468
140.000000	92.836	176.7848
143.000000	92.781	176.4969
145.000000	92.747	176.2808
147.500000	92.702	175.9954
150.000000	92.650	175.7125
152.500000	92.590	175.4348
155.000000	92.527	175.1774
157.500000	92.461	174.9854
160.000000	92.397	174.8671
162.500000	92.335	174.7714
165.000000	92.273	174.6740
167.500000	92.213	174.5992
170.000000	92.153	174.5753
172.500000	92.096	174.5998
175.000000	92.045	174.6351
177.500000	92.001	174.6482
180.000000	91.962	174.6367
182.500000	91.925	174.6130
185.000000	91.888	174.5879
187.500000	91.850	174.5676
190.000000	91.812	174.5582
192.500000	91.774	174.5573
195.000000	91.736	174.5535
197.500000	91.699	174.5458
200.000000	91.662	174.5427
203.000000	91.616	174.5463
206.000000	91.570	174.5515
209.000000	91.527	174.5536
212.000000	91.484	174.5562
214.000000	91.454	174.5640
218.000000	91.396	174.6031
220.000000	91.367	174.6312
224.000000	91.311	174.6953
227.000000	91.269	174.7446
230.000000	91.228	174.7973
233.000000	91.187	174.8627
236.000000	91.145	174.9409
240.000000	91.089	175.0523
243.000000	91.047	175.1360
247.000000	90.995	175.2487
250.000000	90.956	175.3344
254.000000	90.906	175.4549
258.000000	90.857	175.5812
262.000000	90.809	175.7134
265.000000	90.773	175.8219
269.000000	90.727	175.9786
272.000000	90.692	176.1052
276.000000	90.645	176.2928
280.000000	90.599	176.4993
285.000000	90.545	176.7650
290.000000	90.493	177.0291
295.000000	90.435	177.3056
300.000000	90.376	177.6102
304.000000	90.332	177.8756
307.000000	90.303	178.0833
311.000000	90.267	178.3657
315.000000	90.236	178.6504
320.000000	90.198	179.0016
325.000000	90.164	179.3410
330.000000	90.136	179.6878
335.000000	90.111	-179.9384
340.000000	90.086	-179.5553
345.000000	90.060	-179.1846
350.000000	90.034	-178.8314
355.000000	90.007	-178.4869
360.000000	89.983	-178.1379
365.000000	89.964	-177.7777
370.000000	89.949	-177.4102
375.000000	89.937	-177.0448
382.000000	89.924	-176.5410
387.000000	89.916	-176.1915
395.000000	89.903	-175.6613
400.000000	89.893	-175.3384
406.000000	89.882	-174.9524
412.000000	89.873	-174.5728
418.000000	89.866	-174.2011
425.000000	89.860	-173.7638
431.000000	89.853	-173.3742
437.000000	89.846	-172.9746
444.000000	89.841	-172.4940
450.000000	89.839	-172.0788
455.000000	89.841	-171.7426
462.000000	89.848	-171.2940
468.000000	89.856	-170.9309
475.000000	89.866	-170.5269
482.000000	89.874	-170.1275
487.000000	89.878	-169.8337
494.000000	89.882	-169.3998
500.000000	89.887	-169.0125
508.000000	89.899	-168.5040
515.000000	89.911	-168.0751
522.000000	89.924	-167.6455
530.000000	89.939	-167.1366
538.000000	89.957	-166.6066
545.000000	89.977	-166.1336
552.000000	90.000	-165.6559
560.000000	90.032	-165.1180
570.000000	90.084	-164.5108
580.000000	90.142	-163.9971
590.000000	90.206	-163.5699
600.000000	90.270	-163.2764
608.000000	90.309	-163.1690
615.000000	90.322	-163.1448
622.000000	90.306	-163.1069
630.000000	90.251	-162.8777
640.000000	90.168	-162.0573
650.000000	90.142	-160.7121
660.000000	90.209	-159.3022
670.000000	90.338	-158.2114
680.000000	90.486	-157.5008
690.000000	90.625	-157.0531
700.000000	90.750	-156.7590
710.000000	90.858	-156.5597
720.000000	90.952	-156.4123
730.000000	91.032	-156.2721
740.000000	91.101	-156.1055
750.000000	91.164	-155.9072
762.000000	91.237	-155.6469
775.000000	91.315	-155.3631
788.000000	91.392	-155.0833
800.000000	91.462	-154.8243
812.000000	91.531	-154.5645
825.000000	91.607	-154.2738
838.000000	91.685	-153.9749
850.000000	91.754	-153.6948
862.000000	91.824	-153.4072
875.000000	91.900	-153.0917
885.000000	91.961	-152.8530
900.000000	92.055	-152.5077
912.000000	92.132	-152.2404
925.000000	92.217	-151.9592
938.000000	92.301	-151.6863
950.000000	92.378	-151.4377
962.000000	92.457	-151.1907
975.000000	92.545	-150.9310
988.000000	92.635	-150.6844
1000.000000	92.720	-150.4571
1015.000000	92.830	-150.1614
1030.000000	92.943	-149.8807
1044.000000	93.049	-149.6597
1060.000000	93.170	-149.4378
1075.000000	93.285	-149.2106
1090.000000	93.410	-148.9673
1106.000000	93.556	-148.7629
1120.000000	93.689	-148.6641
1138.000000	93.858	-148.6364
1150.000000	93.967	-148.6693
1172.000000	94.155	-148.8083
1180.000000	94.220	-148.8668
1206.000000	94.429	-149.0391
1220.000000	94.544	-149.1492
1241.000000	94.714	-149.3708
1250.000000	94.786	-149.4818
1265.000000	94.904	-149.6860
1280.000000	95.020	-149.9011
1315.000000	95.294	-150.3649
1320.000000	95.335	-150.4369
1340.000000	95.501	-150.7851
1360.000000	95.666	-151.2103
1380.000000	95.833	-151.6714
1400.000000	96.007	-152.2192
1430.000000	96.260	-153.3586
1450.000000	96.403	-154.2855
1475.000000	96.541	-155.4291
1500.000000	96.662	-156.2494
1525.000000	96.848	-156.9361
1550.000000	97.067	-158.1730
1575.000000	97.237	-159.8988
1600.000000	97.353	-161.7712
1625.000000	97.415	-163.6350
1650.000000	97.439	-165.3713
1675.000000	97.444	-166.9960
1700.000000	97.436	-168.5500
1725.000000	97.418	-170.0517
1750.000000	97.392	-171.5297
1775.000000	97.360	-173.0224
1800.000000	97.317	-174.6223
1825.000000	97.251	-176.3998
1850.000000	97.135	-178.3212
1875.000000	96.947	179.7715
1900.000000	96.684	178.1091
1925.000000	96.362	176.8749
1950.000000	96.002	176.1403
1975.000000	95.619	175.9341
2000.000000	95.221	176.3196
2030.000000	94.755	177.6574
2060.000000	94.356	179.9932
2090.000000	94.109	-176.8652
2120.000000	94.079	-173.4260
2140.000000	94.182	-171.2956
2180.000000	94.590	-168.1697
2200.000000	94.841	-167.3263
2240.000000	95.328	-167.0201
2270.000000	95.627	-167.7699
2300.000000	95.840	-169.0974
2330.000000	95.956	-170.7585
2360.000000	95.975	-172.5194
2400.000000	95.853	-174.6796
2430.000000	95.660	-175.8782
2470.000000	95.307	-176.5646
2500.000000	95.011	-176.2609
2540.000000	94.644	-174.7739
2580.000000	94.386	-172.2867
2620.000000	94.297	-169.2763
2650.000000	94.349	-167.0111
2690.000000	94.540	-164.3144
2720.000000	94.745	-162.6186
2760.000000	95.070	-160.7862
2800.000000	95.442	-159.4409
2850.000000	95.946	-158.5467
2900.000000	96.437	-158.6437
2950.000000	96.832	-159.6096
3000.000000	97.100	-160.7987
3040.000000	97.264	-161.5395
3070.000000	97.381	-161.9622
3110.000000	97.541	-162.4101
3150.000000	97.710	-162.7729
3200.000000	97.942	-163.1988
3250.000000	98.194	-163.6878
3300.000000	98.464	-164.2200
3350.000000	98.776	-164.7841
3400.000000	99.147	-165.6447
3450.000000	99.538	-167.1392
3500.000000	99.891	-169.2970
3550.000000	100.178	-171.9068
3600.000000	100.400	-174.7762
3650.000000	100.561	-177.8057
3700.000000	100.662	179.0455
3750.000000	100.698	175.8217
3820.000000	100.627	171.3785
3870.000000	100.493	168.4538
3950.000000	100.177	164.4338
4000.000000	99.931	162.3640
4060.000000	99.599	160.4065
4120.000000	99.254	159.0877
4180.000000	98.933	158.3087
4250.000000	98.609	157.7613
4310.000000	98.349	157.4746
4370.000000	98.089	157.5188
4440.000000	97.818	158.1648
4500.000000	97.656	159.0863
4550.000000	97.577	159.9418
4620.000000	97.531	161.1536
4680.000000	97.543	162.2323
4750.000000	97.623	163.5724
4820.000000	97.791	164.9327
4870.000000	97.969	165.8600
4940.000000	98.303	167.0293
5000.000000	98.672	167.8509
5080.000000	99.299	168.5646
5150.000000	99.991	168.6560
5220.000000	100.821	167.9427
5300.000000	101.900	165.5665
5380.000000	103.010	160.7734
5450.000000	103.875	154.0817
5520.000000	104.507	144.9840
5600.000000	104.808	132.4083
5700.000000	104.442	116.1552
5800.000000	103.329	102.8542
5900.000000	101.731	94.3307
6000.000000	99.971	90.1237
6080.000000	98.623	88.9153
6150.000000	97.551	88.8677
6220.000000	96.593	89.4574
6300.000000	95.636	90.6839
6400.000000	94.636	92.7603
6500.000000	93.837	95.1134
6600.000000	93.210	97.4790
6700.000000	92.719	99.7148
6800.000000	92.332	101.7550
6900.000000	92.028	103.5538
7000.000000	91.789	105.0720
7100.000000	91.590	106.3695
7200.000000	91.425	107.6100
7300.000000	91.310	108.9207
7400.000000	91.280	110.3395
7500.000000	91.379	111.8080
7620.000000	91.745	113.3373
7750.000000	92.505	113.9263
7880.000000	93.596	112.1668
8000.000000	94.731	107.2503
8120.000000	95.760	98.2876
8250.000000	96.491	84.0185
8380.000000	96.633	66.6433
8500.000000	96.208	50.2812
8620.000000	95.356	35.4902
8750.000000	94.175	21.8812
8850.000000	93.253	12.7291
9000.000000	92.135	-0.4815
9120.000000	91.616	-12.4069
9250.000000	91.338	-28.4434
9380.000000	91.036	-48.0330
9500.000000	90.456	-67.6453
9620.000000	89.471	-86.0266
9750.000000	88.021	-102.0105
9880.000000	86.429	-113.0907
10000.000000	85.141	-119.6946
10150.000000	84.154	-124.9278
10300.000000	83.991	-128.7012
10440.000000	84.437	-132.1071
10600.000000	85.391	-136.8088
10750.000000	86.521	-142.7098
10900.000000	87.739	-150.7677
11060.000000	88.973	-162.7321
11200.000000	89.820	-176.8122
11380.000000	90.315	160.3664
11500.000000	90.164	143.6277
11720.000000	88.970	115.1648
11800.000000	88.392	106.4218
12060.000000	87.527	82.3866
12200.000000	88.353	69.3907
12410.000000	90.590	45.5328
12500.000000	91.553	33.2643
12650.000000	92.867	10.6350
12800.000000	93.701	-12.9851
13150.000000	94.023	-59.7582
13200.000000	93.958	-64.9189
13400.000000	93.614	-82.3568
13600.000000	93.199	-96.2657
13800.000000	92.656	-107.8535
14000.000000	91.905	-116.8758
14300.000000	90.532	-123.1450
14500.000000	90.034	-121.5703
14750.000000	90.892	-116.9661
15000.000000	92.661	-119.0740
15250.000000	93.805	-132.2468
15500.000000	93.881	-150.2957
15750.000000	93.013	-165.7993
16000.000000	91.433	-174.1462
16250.000000	89.630	-174.4653
16500.000000	88.451	-171.0583
16750.000000	88.216	-170.1316
17000.000000	88.206	-174.0352
17250.000000	87.659	-178.7065
17500.000000	86.386	-175.5408
17750.000000	85.216	-161.4454
18000.000000	85.533	-146.3213
18250.000000	86.973	-140.0601
18500.000000	88.489	-143.4487
18750.000000	89.652	-154.1284
19000.000000	90.233	-169.9569
19250.000000	90.040	172.4585
19500.000000	89.019	158.1252
19750.000000	87.424	150.3390
