* Measurement data measured by REW V5.20.13
* Source: Headset (KM-HIFI-384KHZ), MICROPHONE (Master Volume), R, volume: 0.610
* Format: 256k Log Swept Sine, 1 sweep at -13.0 dBFS with no timing reference
* Dated: Aug 6, 2023 9:38:56 PM
* REW Settings:
*  C-weighting compensation: Off
*  Target level: 75.0 dB
* Note: 
* Measurement: Aug 6
* Smoothing: 1/24 octave
* Frequency Step: 1/48 octave
* Start Frequency: 20.000 Hz
*
* Freq(Hz)	SPL(dB)	Phase(degrees)
20.000000	60.974	0.0626
20.299999	61.350	-1.6135
20.600000	61.614	-4.1274
20.900000	61.723	-6.8227
21.200001	61.693	-8.9264
21.400000	61.643	-9.6968
21.799999	61.598	-9.7659
22.000000	61.665	-9.2836
22.400000	62.048	-8.2140
22.700001	62.489	-8.1332
23.000000	62.940	-9.0958
23.299999	63.311	-10.9211
23.600000	63.557	-13.1983
24.000000	63.676	-16.1425
24.299999	63.647	-17.7372
24.700001	63.545	-18.7101
25.000000	63.495	-18.6763
25.400000	63.533	-18.0833
25.799999	63.691	-17.5255
26.200001	63.911	-17.4231
26.500000	64.081	-17.6707
26.900000	64.288	-18.3135
27.200001	64.427	-18.9316
27.600000	64.596	-19.8577
28.000000	64.752	-20.8605
28.500000	64.938	-22.1799
29.000000	65.129	-23.5594
29.500000	65.333	-25.1000
30.000000	65.525	-26.9378
30.400000	65.637	-28.5675
30.700001	65.686	-29.7618
31.100000	65.710	-31.0973
31.500000	65.717	-31.9865
32.000000	65.764	-32.5006
32.500000	65.896	-32.7224
33.000000	66.096	-33.0891
33.500000	66.320	-33.7493
34.000000	66.538	-34.6339
34.500000	66.742	-35.6538
35.000000	66.929	-36.7622
35.500000	67.095	-37.8776
36.000000	67.250	-38.8971
36.500000	67.415	-39.7972
37.000000	67.605	-40.6801
37.500000	67.813	-41.6844
38.200001	68.097	-43.4021
38.700001	68.264	-44.7515
39.500000	68.459	-46.5928
40.000000	68.583	-47.3242
40.599998	68.802	-47.9893
41.200001	69.090	-49.0885
41.799999	69.337	-50.9746
42.500000	69.444	-53.4763
43.099998	69.421	-54.8325
43.700001	69.447	-55.2721
44.400002	69.650	-55.6195
45.000000	69.906	-56.6335
45.500000	70.096	-58.0340
46.200001	70.276	-60.3677
46.799999	70.361	-62.3033
47.500000	70.421	-64.2493
48.200001	70.477	-65.8213
48.700001	70.533	-66.7616
49.400002	70.647	-67.9755
50.000000	70.770	-69.0673
50.799999	70.940	-70.7014
51.500000	71.075	-72.2609
52.200001	71.190	-73.8937
53.000000	71.291	-75.8417
53.799999	71.348	-77.8413
54.500000	71.357	-79.5508
55.200001	71.332	-81.1362
56.000000	71.276	-82.7209
57.000000	71.192	-84.3043
58.000000	71.140	-85.4835
59.000000	71.152	-86.5662
60.000000	71.189	-87.8088
60.799999	71.215	-88.7695
61.500000	71.249	-89.5146
62.200001	71.300	-90.2483
63.000000	71.366	-91.1677
64.000000	71.435	-92.3943
65.000000	71.483	-93.5598
66.000000	71.523	-94.6188
67.000000	71.569	-95.6122
68.000000	71.624	-96.6168
69.000000	71.687	-97.7094
70.000000	71.735	-98.9250
71.000000	71.755	-99.9933
72.000000	71.801	-100.8093
73.000000	71.875	-101.7450
74.000000	71.926	-102.7631
75.000000	71.968	-103.6434
76.199997	72.026	-104.6597
77.500000	72.079	-105.8129
78.800003	72.120	-106.9871
80.000000	72.149	-108.1084
81.199997	72.163	-109.2666
82.500000	72.165	-110.4652
83.800003	72.163	-111.5764
85.000000	72.164	-112.5496
86.199997	72.164	-113.4987
87.500000	72.163	-114.5061
88.500000	72.159	-115.2982
90.000000	72.143	-116.5217
91.199997	72.118	-117.5020
92.500000	72.085	-118.5036
93.800003	72.050	-119.4547
95.000000	72.004	-120.2492
96.199997	71.947	-120.8052
97.500000	71.905	-121.1943
98.800003	71.877	-121.5840
100.000000	71.850	-121.9332
101.500000	71.833	-122.3767
103.000000	71.834	-122.9619
104.400002	71.840	-123.6344
106.000000	71.829	-124.5180
107.500000	71.792	-125.3750
109.000000	71.711	-126.2739
110.599998	71.589	-126.9772
112.000000	71.500	-127.4001
113.800003	71.417	-127.6479
115.000000	71.390	-127.5964
117.199997	71.363	-127.2233
118.000000	71.356	-126.9910
120.599998	71.404	-126.8901
122.000000	71.369	-127.5784
124.099998	71.269	-128.4270
125.000000	71.237	-128.7506
126.500000	71.191	-129.1849
128.000000	71.161	-129.4628
131.500000	71.122	-129.8241
132.000000	71.120	-129.8775
134.000000	71.083	-130.2332
136.000000	70.975	-130.4879
138.000000	70.847	-130.6526
140.000000	70.720	-130.8136
143.000000	70.592	-130.9269
145.000000	70.512	-130.7989
147.500000	70.444	-130.2047
150.000000	70.452	-129.6302
152.500000	70.468	-129.3376
155.000000	70.415	-129.1307
157.500000	70.341	-128.8454
160.000000	70.301	-128.7321
162.500000	70.257	-128.6679
165.000000	70.194	-128.4029
167.500000	70.148	-128.1743
170.000000	70.075	-128.1252
172.500000	69.981	-127.8853
175.000000	69.928	-127.6353
177.500000	69.910	-127.5612
180.000000	69.860	-127.3135
182.500000	69.742	-126.7161
185.000000	69.590	-126.0836
187.500000	69.437	-125.4977
190.000000	69.328	-124.6029
192.500000	69.257	-123.4884
195.000000	69.176	-122.3456
197.500000	69.081	-121.1991
200.000000	69.000	-120.1952
203.000000	68.946	-119.0901
206.000000	68.913	-117.6415
209.000000	68.777	-116.1035
212.000000	68.511	-114.7723
214.000000	68.443	-113.9432
218.000000	68.610	-111.9399
220.000000	68.699	-110.3571
224.000000	68.759	-107.3027
227.000000	68.780	-105.3696
230.000000	68.845	-103.2408
233.000000	68.956	-101.1461
236.000000	69.100	-99.3354
240.000000	69.280	-96.9454
243.000000	69.415	-95.1503
247.000000	69.635	-92.9835
250.000000	69.809	-91.4971
254.000000	70.037	-89.5037
258.000000	70.233	-87.5246
262.000000	70.347	-85.8760
265.000000	70.502	-84.6917
269.000000	70.807	-82.8903
272.000000	71.035	-81.4423
276.000000	71.336	-79.7428
280.000000	71.673	-78.4314
285.000000	72.167	-77.0615
290.000000	72.566	-75.2823
295.000000	72.802	-73.4457
300.000000	73.133	-71.8854
304.000000	73.428	-70.7227
307.000000	73.652	-69.8937
311.000000	73.958	-68.8257
315.000000	74.280	-67.7726
320.000000	74.712	-66.4249
325.000000	75.189	-65.0292
330.000000	75.730	-63.8650
335.000000	76.310	-63.1934
340.000000	76.867	-63.2381
345.000000	77.374	-63.8954
350.000000	77.794	-64.9508
355.000000	78.107	-66.0162
360.000000	78.413	-66.5884
365.000000	78.754	-66.7993
370.000000	79.079	-67.0970
375.000000	79.380	-67.5197
382.000000	79.793	-68.0757
387.000000	80.101	-68.4423
395.000000	80.591	-69.1487
400.000000	80.880	-69.6543
406.000000	81.224	-70.2813
412.000000	81.557	-70.8978
418.000000	81.898	-71.5140
425.000000	82.365	-72.3904
431.000000	82.734	-73.2303
437.000000	83.025	-74.2286
444.000000	83.361	-75.5038
450.000000	83.651	-76.6035
455.000000	83.890	-77.5240
462.000000	84.219	-78.9278
468.000000	84.481	-80.2528
475.000000	84.761	-81.7992
482.000000	85.026	-83.3245
487.000000	85.211	-84.4235
494.000000	85.451	-86.0428
500.000000	85.626	-87.4581
508.000000	85.850	-89.2225
515.000000	86.043	-90.7775
522.000000	86.215	-92.3828
530.000000	86.391	-94.1431
538.000000	86.561	-95.8318
545.000000	86.696	-97.3566
552.000000	86.808	-98.8663
560.000000	86.917	-100.5435
570.000000	87.034	-102.5945
580.000000	87.132	-104.4688
590.000000	87.216	-106.2037
600.000000	87.282	-107.8520
608.000000	87.323	-109.0850
615.000000	87.354	-110.1111
622.000000	87.379	-111.0878
630.000000	87.398	-112.1124
640.000000	87.424	-113.2382
650.000000	87.456	-114.2899
660.000000	87.481	-115.3090
670.000000	87.499	-116.1920
680.000000	87.518	-116.9285
690.000000	87.546	-117.5768
700.000000	87.582	-118.1267
710.000000	87.631	-118.6021
720.000000	87.700	-119.0867
730.000000	87.776	-119.5920
740.000000	87.856	-120.1168
750.000000	87.941	-120.6650
762.000000	88.043	-121.3665
775.000000	88.160	-122.2020
788.000000	88.269	-123.1063
800.000000	88.351	-123.9635
812.000000	88.426	-124.7990
825.000000	88.501	-125.6785
838.000000	88.573	-126.5082
850.000000	88.635	-127.2375
862.000000	88.687	-127.9304
875.000000	88.749	-128.6730
885.000000	88.796	-129.1984
900.000000	88.864	-129.9255
912.000000	88.919	-130.5212
925.000000	88.977	-131.1439
938.000000	89.035	-131.7048
950.000000	89.096	-132.1450
962.000000	89.163	-132.5881
975.000000	89.238	-133.1099
988.000000	89.316	-133.6719
1000.000000	89.390	-134.1844
1015.000000	89.482	-134.7647
1030.000000	89.580	-135.3633
1044.000000	89.673	-135.9822
1060.000000	89.783	-136.7216
1075.000000	89.890	-137.4667
1090.000000	89.991	-138.2809
1106.000000	90.087	-139.1636
1120.000000	90.170	-139.9657
1138.000000	90.266	-141.0814
1150.000000	90.320	-141.8011
1172.000000	90.418	-143.0435
1180.000000	90.453	-143.5162
1206.000000	90.554	-145.1378
1220.000000	90.601	-145.9815
1241.000000	90.663	-147.2288
1250.000000	90.686	-147.7830
1265.000000	90.716	-148.7089
1280.000000	90.739	-149.5850
1315.000000	90.789	-151.6216
1320.000000	90.792	-151.9139
1340.000000	90.797	-153.0408
1360.000000	90.793	-154.0750
1380.000000	90.787	-155.0024
1400.000000	90.783	-155.9155
1430.000000	90.771	-157.1964
1450.000000	90.763	-158.0546
1475.000000	90.746	-159.1578
1500.000000	90.722	-160.1841
1525.000000	90.690	-161.1963
1550.000000	90.653	-162.1608
1575.000000	90.615	-163.0785
1600.000000	90.566	-164.0154
1625.000000	90.501	-164.9292
1650.000000	90.411	-165.7861
1675.000000	90.293	-166.4699
1700.000000	90.167	-166.8551
1725.000000	90.058	-167.0135
1750.000000	89.970	-167.0294
1775.000000	89.903	-166.9772
1800.000000	89.845	-166.8994
1825.000000	89.791	-166.7244
1850.000000	89.744	-166.3837
1875.000000	89.726	-165.8413
1900.000000	89.770	-165.2428
1925.000000	89.874	-164.9330
1950.000000	89.983	-165.0864
1975.000000	90.052	-165.4662
2000.000000	90.086	-165.8110
2030.000000	90.106	-166.0651
2060.000000	90.135	-166.1473
2090.000000	90.181	-166.1703
2120.000000	90.242	-166.2157
2140.000000	90.291	-166.2850
2180.000000	90.413	-166.5555
2200.000000	90.475	-166.8237
2240.000000	90.569	-167.5867
2270.000000	90.591	-168.2044
2300.000000	90.564	-168.5862
2330.000000	90.530	-168.4205
2360.000000	90.579	-167.7831
2400.000000	90.810	-167.3064
2430.000000	91.008	-167.6805
2470.000000	91.207	-168.7017
2500.000000	91.317	-169.5671
2540.000000	91.435	-170.7715
2580.000000	91.520	-172.0441
2620.000000	91.556	-173.3275
2650.000000	91.542	-174.1979
2690.000000	91.459	-174.8476
2720.000000	91.407	-174.5285
2760.000000	91.559	-173.3472
2800.000000	91.960	-173.3514
2850.000000	92.369	-175.5801
2900.000000	92.580	-178.2871
2950.000000	92.705	179.1263
3000.000000	92.793	176.5422
3040.000000	92.836	174.3969
3070.000000	92.851	172.7571
3110.000000	92.841	170.5494
3150.000000	92.798	168.4020
3200.000000	92.732	165.8716
3250.000000	92.679	163.2291
3300.000000	92.588	160.1415
3350.000000	92.389	156.9210
3400.000000	92.100	154.0568
3450.000000	91.772	151.6586
3500.000000	91.443	149.5721
3550.000000	91.120	147.5472
3600.000000	90.783	145.4230
3650.000000	90.401	143.2442
3700.000000	89.948	141.1769
3750.000000	89.416	139.4912
3820.000000	88.580	138.3427
3870.000000	88.000	138.5330
3950.000000	87.271	139.5967
4000.000000	86.916	139.9964
4060.000000	86.492	140.0212
4120.000000	86.008	139.8214
4180.000000	85.439	139.7437
4250.000000	84.668	140.2188
4310.000000	83.931	141.3711
4370.000000	83.139	143.3738
4440.000000	82.129	147.1492
4500.000000	81.183	152.6435
4550.000000	80.458	159.7836
4620.000000	80.104	173.6394
4680.000000	80.956	-173.7561
4750.000000	82.983	-163.9892
4820.000000	84.992	-163.1846
4870.000000	85.992	-167.0762
4940.000000	86.687	-174.8715
5000.000000	86.758	178.9399
5080.000000	86.408	173.2606
5150.000000	85.940	170.7161
5220.000000	85.473	169.6753
5300.000000	84.957	169.3632
5380.000000	84.340	169.8291
5450.000000	83.628	172.0098
5520.000000	82.878	177.5008
5600.000000	82.552	-172.1462
5700.000000	83.547	-158.9763
5800.000000	85.277	-151.2838
5900.000000	87.003	-148.2914
6000.000000	88.667	-147.6730
6080.000000	90.043	-148.2780
6150.000000	91.328	-149.7170
6220.000000	92.702	-152.3489
6300.000000	94.343	-157.4342
6400.000000	96.304	-168.2868
6500.000000	97.716	174.7353
6600.000000	98.121	153.7310
6700.000000	97.447	133.9015
6800.000000	96.032	118.8303
6900.000000	94.326	108.4219
7000.000000	92.596	101.0091
7100.000000	90.870	95.3632
7200.000000	89.045	91.5048
7300.000000	87.066	90.5269
7400.000000	85.092	93.1227
7500.000000	83.417	98.3782
7620.000000	82.001	105.7446
7750.000000	81.014	113.0273
7880.000000	80.279	119.4031
8000.000000	79.723	125.0399
8120.000000	79.291	130.6133
8250.000000	78.983	136.5392
8380.000000	78.855	141.9681
8500.000000	78.809	146.2528
8620.000000	78.760	150.9460
8750.000000	79.125	157.7054
8850.000000	79.997	161.9279
9000.000000	81.601	161.1970
9120.000000	82.438	154.5896
9250.000000	82.647	144.8929
9380.000000	82.223	135.7246
9500.000000	81.450	129.0536
9620.000000	80.448	124.3140
9750.000000	79.172	121.9108
9880.000000	77.909	123.0822
10000.000000	77.107	126.2856
10150.000000	76.774	130.0089
10300.000000	76.866	131.5142
10440.000000	77.084	131.2975
10600.000000	77.549	129.9136
10750.000000	78.362	126.4414
10900.000000	79.318	117.7424
11060.000000	79.670	101.5471
11200.000000	78.977	86.6874
11380.000000	77.241	74.5849
11500.000000	76.248	70.3678
11720.000000	75.837	62.4338
11800.000000	76.080	57.7274
12060.000000	77.223	32.8861
12200.000000	77.544	15.2938
12410.000000	77.346	-7.8786
12500.000000	77.295	-14.2999
12650.000000	77.897	-21.2884
12800.000000	79.260	-28.0254
13150.000000	82.173	-50.3078
13200.000000	82.497	-53.3633
13400.000000	83.783	-64.2599
13600.000000	85.201	-74.4915
13800.000000	86.588	-87.3626
14000.000000	87.314	-104.4902
14300.000000	86.450	-128.0815
14500.000000	85.155	-135.4795
14750.000000	84.203	-137.8739
15000.000000	84.597	-142.3556
15250.000000	85.223	-157.1646
15500.000000	84.547	178.8203
15750.000000	81.775	159.9553
16000.000000	77.270	162.3481
16250.000000	73.612	-173.0265
16500.000000	75.279	-150.7629
16750.000000	78.072	-151.8513
17000.000000	79.275	-169.5282
17250.000000	78.662	170.5632
17500.000000	76.601	158.8326
17750.000000	73.757	159.5090
18000.000000	71.264	171.4144
18250.000000	70.561	-175.2788
18500.000000	70.735	-168.6561
18750.000000	70.430	-165.1128
19000.000000	69.839	-158.5137
19250.000000	69.872	-150.7379
19500.000000	70.359	-148.6848
19750.000000	70.410	-153.0300
