* Measurement data measured by REW V5.20.13
* Source: Headset (KM-HIFI-384KHZ), MICROPHONE (Master Volume), L, volume: 0.250
* Format: 256k Log Swept Sine, 1 sweep at -13.0 dBFS with no timing reference
* Dated: Jul 19, 2023 2:17:35 AM
* REW Settings:
*  C-weighting compensation: Off
*  Target level: 75.0 dB
* Note: ; 
* Measurement: Zeus L
* Smoothing: 1/24 octave
* Frequency Step: 1/48 octave
* Start Frequency: 20.000 Hz
*
* Freq(Hz)	SPL(dB)	Phase(degrees)
20.000000	87.621	-75.9824
20.299999	87.786	-76.7725
20.600000	87.946	-77.5203
20.900000	88.105	-78.2178
21.200001	88.268	-78.8785
21.400000	88.379	-79.3143
21.799999	88.605	-80.1992
22.000000	88.718	-80.6568
22.400000	88.939	-81.6028
22.700001	89.097	-82.3201
23.000000	89.247	-83.0181
23.299999	89.391	-83.6769
23.600000	89.531	-84.2894
24.000000	89.717	-85.0423
24.299999	89.857	-85.5822
24.700001	90.045	-86.3059
25.000000	90.182	-86.8697
25.400000	90.356	-87.6494
25.799999	90.514	-88.4301
26.200001	90.659	-89.1690
26.500000	90.761	-89.6804
26.900000	90.896	-90.3083
27.200001	90.997	-90.7540
27.600000	91.134	-91.3385
28.000000	91.272	-91.9286
28.500000	91.444	-92.6786
29.000000	91.620	-93.4518
29.500000	91.799	-94.2872
30.000000	91.973	-95.2187
30.400000	92.101	-96.0089
30.700001	92.188	-96.5950
31.100000	92.299	-97.3264
31.500000	92.409	-97.9927
32.000000	92.557	-98.7939
32.500000	92.711	-99.6602
33.000000	92.852	-100.6125
33.500000	92.970	-101.5556
34.000000	93.074	-102.3855
34.500000	93.180	-103.1089
35.000000	93.294	-103.8125
35.500000	93.406	-104.5533
36.000000	93.509	-105.3052
36.500000	93.607	-106.0295
37.000000	93.703	-106.7416
37.500000	93.797	-107.4814
38.200001	93.910	-108.5316
38.700001	93.978	-109.2041
39.500000	94.095	-110.1089
40.000000	94.182	-110.6719
40.599998	94.288	-111.4277
41.200001	94.381	-112.2333
41.799999	94.462	-113.0209
42.500000	94.546	-113.9135
43.099998	94.604	-114.6755
43.700001	94.643	-115.3764
44.400002	94.676	-116.0379
45.000000	94.704	-116.5107
45.500000	94.725	-116.8872
46.200001	94.742	-117.3350
46.799999	94.754	-117.5642
47.500000	94.790	-117.7471
48.200001	94.833	-118.0043
48.700001	94.854	-118.1788
49.400002	94.883	-118.2445
50.000000	94.937	-118.1912
50.799999	95.046	-118.2602
51.500000	95.142	-118.4875
52.200001	95.233	-118.7290
53.000000	95.345	-119.0134
53.799999	95.460	-119.3750
54.500000	95.556	-119.7308
55.200001	95.648	-120.1041
56.000000	95.747	-120.5534
57.000000	95.857	-121.0964
58.000000	95.962	-121.5508
59.000000	96.080	-121.9468
60.000000	96.216	-122.3458
60.799999	96.342	-122.7166
61.500000	96.460	-123.1315
62.200001	96.579	-123.6476
63.000000	96.708	-124.3586
64.000000	96.840	-125.4224
65.000000	96.912	-126.4981
66.000000	96.939	-127.2861
67.000000	96.962	-127.7325
68.000000	97.001	-127.9569
69.000000	97.067	-128.0708
70.000000	97.159	-128.1741
71.000000	97.272	-128.3210
72.000000	97.405	-128.5341
73.000000	97.552	-128.8608
74.000000	97.703	-129.3198
75.000000	97.852	-129.8829
76.199997	98.023	-130.6783
77.500000	98.193	-131.6650
78.800003	98.346	-132.7276
80.000000	98.471	-133.7681
81.199997	98.583	-134.8207
82.500000	98.695	-136.0014
83.800003	98.790	-137.2382
85.000000	98.862	-138.3853
86.199997	98.921	-139.5088
87.500000	98.970	-140.6811
88.500000	98.999	-141.5294
90.000000	99.027	-142.6995
91.199997	99.035	-143.5265
92.500000	99.031	-144.2965
93.800003	99.018	-144.9266
95.000000	99.003	-145.3785
96.199997	98.996	-145.7228
97.500000	99.003	-146.0269
98.800003	99.028	-146.3101
100.000000	99.065	-146.5836
101.500000	99.128	-146.9801
103.000000	99.201	-147.4858
104.400002	99.266	-148.0731
106.000000	99.326	-148.8408
107.500000	99.367	-149.6226
109.000000	99.390	-150.4413
110.599998	99.394	-151.2911
112.000000	99.385	-151.9522
113.800003	99.371	-152.6355
115.000000	99.368	-152.9883
117.199997	99.385	-153.4813
118.000000	99.400	-153.6348
120.599998	99.476	-154.1959
122.000000	99.523	-154.5989
124.099998	99.583	-155.3351
125.000000	99.603	-155.6814
126.500000	99.628	-156.2755
128.000000	99.641	-156.8708
131.500000	99.634	-158.1226
132.000000	99.630	-158.2712
134.000000	99.621	-158.7784
136.000000	99.627	-159.1836
138.000000	99.652	-159.5699
140.000000	99.690	-159.9999
143.000000	99.753	-160.7604
145.000000	99.791	-161.3228
147.500000	99.825	-162.0514
150.000000	99.846	-162.7869
152.500000	99.858	-163.5378
155.000000	99.866	-164.2750
157.500000	99.876	-164.9741
160.000000	99.889	-165.6496
162.500000	99.902	-166.3159
165.000000	99.913	-166.9643
167.500000	99.921	-167.6029
170.000000	99.927	-168.2566
172.500000	99.928	-168.9395
175.000000	99.924	-169.6550
177.500000	99.913	-170.4149
180.000000	99.892	-171.2434
182.500000	99.845	-172.1752
185.000000	99.737	-173.1070
187.500000	99.547	-173.5626
190.000000	99.358	-172.9827
192.500000	99.322	-171.7606
195.000000	99.440	-170.9901
197.500000	99.587	-171.0135
200.000000	99.692	-171.4845
203.000000	99.764	-172.2173
206.000000	99.800	-172.9678
209.000000	99.815	-173.7176
212.000000	99.812	-174.4650
214.000000	99.799	-174.9570
218.000000	99.745	-175.8667
220.000000	99.711	-176.2121
224.000000	99.671	-176.6140
227.000000	99.683	-176.8821
230.000000	99.705	-177.2756
233.000000	99.715	-177.7509
236.000000	99.708	-178.2475
240.000000	99.679	-178.8906
243.000000	99.654	-179.3311
247.000000	99.635	-179.8624
250.000000	99.629	179.7372
254.000000	99.615	179.1528
258.000000	99.589	178.5268
262.000000	99.558	177.9258
265.000000	99.535	177.5085
269.000000	99.502	176.9772
272.000000	99.477	176.5919
276.000000	99.443	176.0882
280.000000	99.404	175.5922
285.000000	99.350	174.9898
290.000000	99.296	174.4097
295.000000	99.237	173.8510
300.000000	99.173	173.3292
304.000000	99.123	172.9458
307.000000	99.088	172.6653
311.000000	99.043	172.2855
315.000000	98.995	171.8960
320.000000	98.929	171.4078
325.000000	98.856	170.9426
330.000000	98.777	170.5221
335.000000	98.693	170.1514
340.000000	98.606	169.8414
345.000000	98.518	169.6101
350.000000	98.435	169.4724
355.000000	98.366	169.4086
360.000000	98.314	169.3403
365.000000	98.273	169.1790
370.000000	98.230	168.9230
375.000000	98.176	168.6283
382.000000	98.082	168.2230
387.000000	98.006	167.9781
395.000000	97.873	167.7057
400.000000	97.789	167.6385
406.000000	97.696	167.6289
412.000000	97.613	167.6438
418.000000	97.536	167.6670
425.000000	97.449	167.7070
431.000000	97.375	167.7579
437.000000	97.300	167.8353
444.000000	97.213	167.9819
450.000000	97.143	168.1785
455.000000	97.091	168.3887
462.000000	97.032	168.7299
468.000000	96.995	169.0351
475.000000	96.968	169.3730
482.000000	96.958	169.6513
487.000000	96.960	169.7885
494.000000	96.968	169.8940
500.000000	96.976	169.8987
508.000000	96.976	169.7472
515.000000	96.951	169.5262
522.000000	96.894	169.3936
530.000000	96.819	169.6148
538.000000	96.811	170.1314
545.000000	96.869	170.3422
552.000000	96.933	170.1622
560.000000	96.971	169.6558
570.000000	96.962	168.9361
580.000000	96.918	168.3024
590.000000	96.865	167.6909
600.000000	96.791	167.0714
608.000000	96.716	166.6420
615.000000	96.644	166.3101
622.000000	96.568	166.0042
630.000000	96.476	165.6946
640.000000	96.359	165.3804
650.000000	96.249	165.0433
660.000000	96.132	164.5594
670.000000	95.967	163.8824
680.000000	95.699	163.2497
690.000000	95.303	163.5133
700.000000	94.938	165.5019
710.000000	94.843	168.2517
720.000000	94.968	170.1111
730.000000	95.118	170.8531
740.000000	95.216	170.9904
750.000000	95.261	170.9207
762.000000	95.269	170.7791
775.000000	95.243	170.6514
788.000000	95.197	170.5984
800.000000	95.146	170.6036
812.000000	95.088	170.6176
825.000000	95.015	170.7406
838.000000	94.951	170.9677
850.000000	94.907	171.2118
862.000000	94.887	171.4033
875.000000	94.875	171.3826
885.000000	94.853	171.2042
900.000000	94.788	170.8055
912.000000	94.702	170.4677
925.000000	94.579	170.1848
938.000000	94.434	170.0403
950.000000	94.291	170.0285
962.000000	94.143	170.1484
975.000000	93.989	170.3827
988.000000	93.835	170.6655
1000.000000	93.691	170.9787
1015.000000	93.502	171.4568
1030.000000	93.309	172.1046
1044.000000	93.140	172.8235
1060.000000	92.950	173.6398
1075.000000	92.754	174.5205
1090.000000	92.557	175.6177
1106.000000	92.357	177.0133
1120.000000	92.200	178.4238
1138.000000	92.041	-179.7395
1150.000000	91.934	-178.5871
1172.000000	91.702	-176.0141
1180.000000	91.632	-174.8176
1206.000000	91.575	-170.8098
1220.000000	91.598	-169.0075
1241.000000	91.610	-166.3726
1250.000000	91.625	-165.1364
1265.000000	91.686	-163.0589
1280.000000	91.782	-161.0801
1315.000000	92.134	-156.7268
1320.000000	92.204	-156.1895
1340.000000	92.503	-154.5441
1360.000000	92.750	-153.5801
1380.000000	92.920	-152.5957
1400.000000	93.109	-151.2750
1430.000000	93.508	-149.8568
1450.000000	93.740	-149.7509
1475.000000	93.881	-149.8962
1500.000000	93.903	-149.4221
1525.000000	93.923	-148.1775
1550.000000	94.014	-146.3645
1575.000000	94.208	-144.5091
1600.000000	94.469	-143.0298
1625.000000	94.749	-141.9542
1650.000000	95.022	-141.2738
1675.000000	95.272	-140.9133
1700.000000	95.462	-140.8576
1725.000000	95.553	-140.7381
1750.000000	95.584	-139.9974
1775.000000	95.633	-138.4905
1800.000000	95.777	-136.3574
1825.000000	96.076	-134.0186
1850.000000	96.536	-132.2636
1875.000000	97.016	-131.7967
1900.000000	97.382	-132.0347
1925.000000	97.668	-132.1819
1950.000000	97.938	-132.1053
1975.000000	98.218	-131.9370
2000.000000	98.509	-131.7742
2030.000000	98.875	-131.6218
2060.000000	99.275	-131.5339
2090.000000	99.726	-131.8171
2120.000000	100.158	-132.7957
2140.000000	100.406	-133.6827
2180.000000	100.793	-135.6065
2200.000000	100.930	-136.4024
2240.000000	101.192	-137.2684
2270.000000	101.456	-137.5823
2300.000000	101.779	-138.0822
2330.000000	102.117	-138.9247
2360.000000	102.448	-140.0438
2400.000000	102.863	-141.8311
2430.000000	103.151	-143.3256
2470.000000	103.511	-145.4121
2500.000000	103.772	-147.0198
2540.000000	104.125	-149.2906
2580.000000	104.474	-151.8916
2620.000000	104.789	-154.8543
2650.000000	104.994	-157.2567
2690.000000	105.220	-160.6061
2720.000000	105.358	-163.1732
2760.000000	105.514	-166.6412
2800.000000	105.638	-170.2782
2850.000000	105.713	-175.0951
2900.000000	105.686	-179.9553
2950.000000	105.569	175.2558
3000.000000	105.359	170.6656
3040.000000	105.146	167.2039
3070.000000	104.964	164.6492
3110.000000	104.672	161.2789
3150.000000	104.305	158.1677
3200.000000	103.782	154.9045
3250.000000	103.228	152.2005
3300.000000	102.633	149.9741
3350.000000	101.989	148.5730
3400.000000	101.391	148.1686
3450.000000	100.909	147.9034
3500.000000	100.441	147.4658
3550.000000	99.942	147.2562
3600.000000	99.435	147.5299
3650.000000	98.960	148.2448
3700.000000	98.541	149.1769
3750.000000	98.166	150.1524
3820.000000	97.681	151.7945
3870.000000	97.395	153.1034
3950.000000	97.011	154.6562
4000.000000	96.723	155.3500
4060.000000	96.286	156.5770
4120.000000	95.805	158.8247
4180.000000	95.385	162.3373
4250.000000	95.182	167.6382
4310.000000	95.345	171.6709
4370.000000	95.632	173.9961
4440.000000	95.866	175.1672
4500.000000	95.969	175.7009
4550.000000	95.984	175.9323
4620.000000	95.850	176.5282
4680.000000	95.653	178.1311
4750.000000	95.526	-178.6558
4820.000000	95.601	-174.9224
4870.000000	95.767	-172.2429
4940.000000	96.165	-168.7051
5000.000000	96.662	-166.1819
5080.000000	97.510	-164.2062
5150.000000	98.327	-164.4174
5220.000000	99.051	-166.8610
5300.000000	99.495	-171.9069
5380.000000	99.364	-176.6218
5450.000000	98.964	-177.8979
5520.000000	98.688	-176.2969
5600.000000	98.829	-173.1141
5700.000000	99.588	-170.3016
5800.000000	100.640	-170.4976
5900.000000	101.661	-173.8369
6000.000000	102.476	-179.6788
6080.000000	102.922	174.4224
6150.000000	103.153	168.7235
6220.000000	103.231	162.7723
6300.000000	103.144	155.9354
6400.000000	102.783	147.5992
6500.000000	102.141	140.0255
6600.000000	101.294	133.7982
6700.000000	100.345	128.6862
6800.000000	99.307	124.0984
6900.000000	98.048	120.0608
7000.000000	96.407	118.6707
7100.000000	94.603	122.5143
7200.000000	93.308	129.9378
7300.000000	92.734	136.8820
7400.000000	92.493	142.0209
7500.000000	92.333	145.8678
7620.000000	92.142	149.5479
7750.000000	91.900	153.0779
7880.000000	91.632	156.7181
8000.000000	91.412	160.6054
8120.000000	91.322	165.0455
8250.000000	91.466	169.7543
8380.000000	91.825	173.4249
8500.000000	92.289	175.3049
8620.000000	92.698	174.9344
8750.000000	92.738	173.1442
8850.000000	92.486	173.1540
9000.000000	92.258	177.1711
9120.000000	92.688	-178.5374
9250.000000	93.674	-176.3349
9380.000000	94.803	-178.3132
9500.000000	95.660	175.9080
9620.000000	96.121	167.0036
9750.000000	96.027	155.4471
9880.000000	95.264	144.0934
10000.000000	94.012	135.6490
10150.000000	91.884	129.5606
10300.000000	89.413	128.9073
10440.000000	86.998	133.0557
10600.000000	84.238	144.3719
10750.000000	82.036	162.8452
10900.000000	81.471	-172.7278
11060.000000	83.629	-148.6880
11200.000000	86.341	-137.6308
11380.000000	88.851	-139.4252
11500.000000	89.551	-145.6353
11720.000000	89.290	-152.4944
11800.000000	88.997	-151.8289
12060.000000	89.044	-139.9443
12200.000000	90.455	-131.4934
12410.000000	93.911	-126.0526
12500.000000	95.419	-128.5277
12650.000000	97.412	-140.2093
12800.000000	98.318	-159.4653
13150.000000	95.853	159.8719
13200.000000	95.160	156.4471
13400.000000	91.975	148.2818
13600.000000	88.038	152.9919
13800.000000	83.783	178.9676
14000.000000	83.390	-141.3756
14300.000000	89.705	-106.5289
14500.000000	93.560	-106.5108
14750.000000	97.017	-123.4684
15000.000000	98.651	-151.8556
15250.000000	98.188	177.5283
15500.000000	95.848	156.3817
15750.000000	92.647	148.1088
16000.000000	89.577	148.7480
16250.000000	87.146	154.8961
16500.000000	85.599	162.6222
16750.000000	84.554	170.8409
17000.000000	84.191	-179.1994
17250.000000	84.734	-173.0146
17500.000000	85.202	-173.5016
17750.000000	84.931	-177.1297
18000.000000	83.835	-177.7751
18250.000000	82.526	-171.5919
18500.000000	82.129	-161.3730
18750.000000	82.935	-154.5928
19000.000000	83.809	-156.3677
19250.000000	83.776	-164.1001
19500.000000	82.705	-171.1920
19750.000000	81.026	-174.6809
