* Freq(Hz)	SPL(dB)
20.000000	4.814
20.299999	4.805
20.600000	4.794
20.900000	4.782
21.200001	4.771
21.400000	4.764
21.799999	4.749
22.000000	4.741
22.400000	4.727
22.700001	4.716
23.000000	4.706
23.299999	4.696
23.600000	4.686
24.000000	4.672
24.299999	4.663
24.700001	4.650
25.000000	4.640
25.400000	4.628
25.799999	4.615
26.200001	4.602
26.500000	4.593
26.900000	4.580
27.200001	4.571
27.600000	4.557
28.000000	4.544
28.500000	4.528
29.000000	4.512
29.500000	4.495
30.000000	4.480
30.400000	4.467
30.700001	4.457
31.100000	4.444
31.500000	4.431
32.000000	4.414
32.500000	4.397
33.000000	4.381
33.500000	4.365
34.000000	4.349
34.500000	4.332
35.000000	4.316
35.500000	4.301
36.000000	4.285
36.500000	4.270
37.000000	4.254
37.500000	4.239
38.200001	4.219
38.700001	4.204
39.500000	4.182
40.000000	4.168
40.599998	4.152
41.200001	4.136
41.799999	4.121
42.500000	4.103
43.099998	4.088
43.700001	4.074
44.400002	4.058
45.000000	4.044
45.500000	4.034
46.200001	4.018
46.799999	4.006
47.500000	3.991
48.200001	3.977
48.700001	3.967
49.400002	3.953
50.000000	3.941
50.799999	3.926
51.500000	3.913
52.200001	3.900
53.000000	3.885
53.799999	3.871
54.500000	3.859
55.200001	3.846
56.000000	3.832
57.000000	3.815
58.000000	3.797
59.000000	3.780
60.000000	3.763
60.799999	3.749
61.500000	3.737
62.200001	3.724
63.000000	3.710
64.000000	3.693
65.000000	3.676
66.000000	3.660
67.000000	3.643
68.000000	3.626
69.000000	3.609
70.000000	3.592
71.000000	3.575
72.000000	3.557
73.000000	3.540
74.000000	3.523
75.000000	3.506
76.199997	3.486
77.500000	3.465
78.800003	3.443
80.000000	3.423
81.199997	3.404
82.500000	3.383
83.800003	3.363
85.000000	3.344
86.199997	3.326
87.500000	3.306
88.500000	3.290
90.000000	3.267
91.199997	3.249
92.500000	3.230
93.800003	3.210
95.000000	3.192
96.199997	3.173
97.500000	3.153
98.800003	3.133
100.000000	3.114
101.500000	3.091
103.000000	3.067
104.400002	3.045
106.000000	3.020
107.500000	2.996
109.000000	2.972
110.599998	2.946
112.000000	2.924
113.800003	2.895
115.000000	2.876
117.199997	2.839
118.000000	2.827
120.599998	2.785
122.000000	2.762
124.099998	2.728
125.000000	2.714
126.500000	2.690
128.000000	2.667
131.500000	2.612
132.000000	2.605
134.000000	2.574
136.000000	2.545
138.000000	2.517
140.000000	2.488
143.000000	2.446
145.000000	2.419
147.500000	2.386
150.000000	2.354
152.500000	2.323
155.000000	2.294
157.500000	2.265
160.000000	2.236
162.500000	2.209
165.000000	2.182
167.500000	2.156
170.000000	2.130
172.500000	2.106
175.000000	2.082
177.500000	2.059
180.000000	2.036
182.500000	2.015
185.000000	1.993
187.500000	1.973
190.000000	1.953
192.500000	1.934
195.000000	1.915
197.500000	1.897
200.000000	1.880
203.000000	1.860
206.000000	1.842
209.000000	1.824
212.000000	1.807
214.000000	1.795
218.000000	1.774
220.000000	1.763
224.000000	1.744
227.000000	1.731
230.000000	1.718
233.000000	1.707
236.000000	1.696
240.000000	1.683
243.000000	1.673
247.000000	1.662
250.000000	1.653
254.000000	1.643
258.000000	1.634
262.000000	1.626
265.000000	1.620
269.000000	1.613
272.000000	1.608
276.000000	1.602
280.000000	1.597
285.000000	1.590
290.000000	1.585
295.000000	1.580
300.000000	1.576
304.000000	1.574
307.000000	1.572
311.000000	1.569
315.000000	1.566
320.000000	1.564
325.000000	1.562
330.000000	1.560
335.000000	1.558
340.000000	1.556
345.000000	1.554
350.000000	1.551
355.000000	1.550
360.000000	1.547
365.000000	1.545
370.000000	1.542
375.000000	1.539
382.000000	1.534
387.000000	1.529
395.000000	1.520
400.000000	1.514
406.000000	1.505
412.000000	1.495
418.000000	1.485
425.000000	1.471
431.000000	1.458
437.000000	1.445
444.000000	1.428
450.000000	1.414
455.000000	1.401
462.000000	1.383
468.000000	1.367
475.000000	1.347
482.000000	1.328
487.000000	1.313
494.000000	1.292
500.000000	1.273
508.000000	1.248
515.000000	1.225
522.000000	1.202
530.000000	1.175
538.000000	1.148
545.000000	1.123
552.000000	1.099
560.000000	1.071
570.000000	1.036
580.000000	1.001
590.000000	0.966
600.000000	0.931
608.000000	0.903
615.000000	0.877
622.000000	0.852
630.000000	0.823
640.000000	0.786
650.000000	0.748
660.000000	0.711
670.000000	0.673
680.000000	0.634
690.000000	0.595
700.000000	0.556
710.000000	0.517
720.000000	0.478
730.000000	0.440
740.000000	0.403
750.000000	0.366
762.000000	0.324
775.000000	0.279
788.000000	0.237
800.000000	0.199
812.000000	0.164
825.000000	0.129
838.000000	0.097
850.000000	0.072
862.000000	0.049
875.000000	0.029
885.000000	0.016
900.000000	0.003
912.000000	-0.002
925.000000	-0.003
938.000000	0.003
950.000000	0.014
962.000000	0.031
975.000000	0.056
988.000000	0.087
1000.000000	0.122
1015.000000	0.172
1030.000000	0.230
1044.000000	0.289
1060.000000	0.361
1075.000000	0.429
1090.000000	0.499
1106.000000	0.573
1120.000000	0.636
1138.000000	0.713
1150.000000	0.763
1172.000000	0.850
1180.000000	0.881
1206.000000	0.976
1220.000000	1.026
1241.000000	1.099
1250.000000	1.129
1265.000000	1.179
1280.000000	1.228
1315.000000	1.339
1320.000000	1.354
1340.000000	1.414
1360.000000	1.473
1380.000000	1.533
1400.000000	1.593
1430.000000	1.684
1450.000000	1.747
1475.000000	1.829
1500.000000	1.915
1525.000000	2.007
1550.000000	2.105
1575.000000	2.208
1600.000000	2.317
1625.000000	2.430
1650.000000	2.548
1675.000000	2.670
1700.000000	2.795
1725.000000	2.924
1750.000000	3.055
1775.000000	3.189
1800.000000	3.324
1825.000000	3.461
1850.000000	3.601
1875.000000	3.743
1900.000000	3.886
1925.000000	4.033
1950.000000	4.183
1975.000000	4.336
2000.000000	4.494
2030.000000	4.690
2060.000000	4.893
2090.000000	5.103
2120.000000	5.318
2140.000000	5.464
2180.000000	5.761
2200.000000	5.911
2240.000000	6.211
2270.000000	6.435
2300.000000	6.656
2330.000000	6.873
2360.000000	7.084
2400.000000	7.355
2430.000000	7.549
2470.000000	7.794
2500.000000	7.968
2540.000000	8.187
2580.000000	8.389
2620.000000	8.577
2650.000000	8.707
2690.000000	8.866
2720.000000	8.974
2760.000000	9.099
2800.000000	9.205
2850.000000	9.307
2900.000000	9.376
2950.000000	9.411
3000.000000	9.414
3040.000000	9.394
3070.000000	9.367
3110.000000	9.315
3150.000000	9.248
3200.000000	9.144
3250.000000	9.020
3300.000000	8.881
3350.000000	8.729
3400.000000	8.565
3450.000000	8.392
3500.000000	8.213
3550.000000	8.028
3600.000000	7.840
3650.000000	7.649
3700.000000	7.455
3750.000000	7.262
3820.000000	6.993
3870.000000	6.803
3950.000000	6.505
4000.000000	6.324
4060.000000	6.112
4120.000000	5.906
4180.000000	5.706
4250.000000	5.482
4310.000000	5.297
4370.000000	5.118
4440.000000	4.918
4500.000000	4.754
4550.000000	4.622
4620.000000	4.446
4680.000000	4.302
4750.000000	4.141
4820.000000	3.986
4870.000000	3.878
4940.000000	3.732
5000.000000	3.611
5080.000000	3.454
5150.000000	3.324
5220.000000	3.199
5300.000000	3.066
5380.000000	2.943
5450.000000	2.843
5520.000000	2.750
5600.000000	2.652
5700.000000	2.542
5800.000000	2.445
5900.000000	2.359
6000.000000	2.286
6080.000000	2.236
6150.000000	2.199
6220.000000	2.167
6300.000000	2.137
6400.000000	2.110
6500.000000	2.091
6600.000000	2.078
6700.000000	2.071
6800.000000	2.067
6900.000000	2.064
7000.000000	2.063
7100.000000	2.062
7200.000000	2.060
7300.000000	2.057
7400.000000	2.050
7500.000000	2.039
7620.000000	2.018
7750.000000	1.984
7880.000000	1.941
8000.000000	1.892
8120.000000	1.834
8250.000000	1.761
8380.000000	1.673
8500.000000	1.574
8620.000000	1.453
8750.000000	1.295
8850.000000	1.151
9000.000000	0.900
9120.000000	0.675
9250.000000	0.410
9380.000000	0.131
9500.000000	-0.135
9620.000000	-0.407
9750.000000	-0.704
9880.000000	-1.001
10000.000000	-1.267
10150.000000	-1.587
10300.000000	-1.893
10440.000000	-2.172
10600.000000	-2.508
10750.000000	-2.865
10900.000000	-3.281
11060.000000	-3.788
11200.000000	-4.271
11380.000000	-4.912
11500.000000	-5.331
11720.000000	-6.054
11800.000000	-6.299
12060.000000	-7.024
12200.000000	-7.371
12410.000000	-7.838
12500.000000	-8.022
12650.000000	-8.312
12800.000000	-8.587
13150.000000	-9.209
13200.000000	-9.300
13400.000000	-9.671
13600.000000	-10.065
13800.000000	-10.484
14000.000000	-10.926
14300.000000	-11.616
14500.000000	-12.093
14750.000000	-12.707
15000.000000	-13.343
15250.000000	-13.997
15500.000000	-14.665
15750.000000	-15.343
16000.000000	-16.031
16250.000000	-16.728
16500.000000	-17.439
16750.000000	-18.168
17000.000000	-18.919
17250.000000	-19.697
17500.000000	-20.510
17750.000000	-21.365
18000.000000	-22.272
18250.000000	-23.240
18500.000000	-24.274
18750.000000	-25.381
19000.000000	-26.564
19250.000000	-27.834
19500.000000	-29.277
19750.000000	-30.700
20000.000000	-31.00
