* Measurement data measured by REW V5.20.13
* Source: EXCL: Headset (3- KM-HIFI-384KHZ), MICROPHONE (Master Volume), 0, volume: 1.000
* Format: 256k Log Swept Sine, 1 sweep at -24.0 dBFS with no timing reference
* Dated: Sep 24, 2023 12:05:17 PM
* REW Settings:
*  C-weighting compensation: Off
*  Target level: 75.0 dB
* Note: ; 
* Measurement: 7hz Salnotes Zero L
* Smoothing: 1/24 octave
* Frequency Step: 1/48 octave
* Start Frequency: 20.000 Hz
*
* Freq(Hz)	SPL(dB)	Phase(degrees)
20.000000	100.689	-154.4148
20.299999	100.694	-155.1820
20.600000	100.697	-155.9262
20.900000	100.698	-156.6476
21.200001	100.699	-157.3472
21.400000	100.699	-157.8020
21.799999	100.698	-158.6852
22.000000	100.698	-159.1152
22.400000	100.698	-159.9571
22.700001	100.698	-160.5777
23.000000	100.698	-161.1935
23.299999	100.697	-161.8061
23.600000	100.695	-162.4142
24.000000	100.689	-163.2137
24.299999	100.683	-163.8015
24.700001	100.673	-164.5674
25.000000	100.664	-165.1291
25.400000	100.651	-165.8617
25.799999	100.635	-166.5730
26.200001	100.616	-167.2567
26.500000	100.602	-167.7486
26.900000	100.582	-168.3791
27.200001	100.568	-168.8385
27.600000	100.549	-169.4415
28.000000	100.529	-170.0370
28.500000	100.500	-170.7582
29.000000	100.466	-171.4268
29.500000	100.432	-172.0293
30.000000	100.400	-172.5746
30.400000	100.379	-172.9814
30.700001	100.366	-173.2738
31.100000	100.353	-173.6540
31.500000	100.344	-174.0366
32.000000	100.340	-174.5482
32.500000	100.337	-175.1210
33.000000	100.327	-175.7379
33.500000	100.307	-176.3476
34.000000	100.284	-176.9094
34.500000	100.264	-177.4365
35.000000	100.249	-177.9760
35.500000	100.232	-178.5573
36.000000	100.208	-179.1587
36.500000	100.177	-179.7361
37.000000	100.142	179.7328
37.500000	100.108	179.2341
38.200001	100.061	178.5539
38.700001	100.027	178.0846
39.500000	99.973	177.3809
40.000000	99.942	176.9448
40.599998	99.904	176.4004
41.200001	99.859	175.8626
41.799999	99.810	175.3831
42.500000	99.757	174.8995
43.099998	99.720	174.4951
43.700001	99.684	174.0681
44.400002	99.639	173.5616
45.000000	99.597	173.1509
45.500000	99.562	172.8331
46.200001	99.514	172.4122
46.799999	99.476	172.0526
47.500000	99.428	171.6251
48.200001	99.376	171.2181
48.700001	99.339	170.9547
49.400002	99.289	170.6056
50.000000	99.249	170.2957
50.799999	99.193	169.8724
51.500000	99.141	169.5266
52.200001	99.091	169.2025
53.000000	99.037	168.8345
53.799999	98.984	168.4667
54.500000	98.937	168.1424
55.200001	98.887	167.8212
56.000000	98.825	167.5018
57.000000	98.752	167.2194
58.000000	98.699	166.9880
59.000000	98.660	166.6715
60.000000	98.616	166.2372
60.799999	98.567	165.8734
61.500000	98.517	165.5834
62.200001	98.464	165.3334
63.000000	98.403	165.0995
64.000000	98.332	164.8532
65.000000	98.266	164.6185
66.000000	98.204	164.3933
67.000000	98.144	164.1661
68.000000	98.084	163.9441
69.000000	98.026	163.7355
70.000000	97.970	163.5245
71.000000	97.912	163.3173
72.000000	97.853	163.1244
73.000000	97.795	162.9453
74.000000	97.739	162.7747
75.000000	97.683	162.6065
76.199997	97.617	162.4116
77.500000	97.546	162.2161
78.800003	97.477	162.0305
80.000000	97.413	161.8658
81.199997	97.349	161.7165
82.500000	97.282	161.5695
83.800003	97.216	161.4339
85.000000	97.156	161.3162
86.199997	97.097	161.2052
87.500000	97.032	161.0955
88.500000	96.983	161.0186
90.000000	96.910	160.9111
91.199997	96.853	160.8314
92.500000	96.792	160.7513
93.800003	96.733	160.6807
95.000000	96.678	160.6245
96.199997	96.625	160.5771
97.500000	96.566	160.5323
98.800003	96.507	160.4984
100.000000	96.453	160.4751
101.500000	96.388	160.4472
103.000000	96.325	160.4136
104.400002	96.267	160.3779
106.000000	96.201	160.3486
107.500000	96.140	160.3401
109.000000	96.081	160.3409
110.599998	96.018	160.3474
112.000000	95.963	160.3564
113.800003	95.895	160.3737
115.000000	95.851	160.3911
117.199997	95.774	160.4227
118.000000	95.746	160.4307
120.599998	95.646	160.4956
122.000000	95.592	160.5589
124.099998	95.515	160.6476
125.000000	95.484	160.6816
126.500000	95.432	160.7322
128.000000	95.381	160.7849
131.500000	95.260	160.9547
132.000000	95.242	160.9824
134.000000	95.171	161.0922
136.000000	95.099	161.2131
138.000000	95.030	161.3474
140.000000	94.962	161.4993
143.000000	94.856	161.7824
145.000000	94.785	161.9968
147.500000	94.697	162.2938
150.000000	94.613	162.6499
152.500000	94.532	163.0784
155.000000	94.458	163.5736
157.500000	94.395	164.1266
160.000000	94.352	164.7230
162.500000	94.326	165.3188
165.000000	94.313	165.8962
167.500000	94.317	166.4192
170.000000	94.336	166.8596
172.500000	94.364	167.1989
175.000000	94.396	167.4190
177.500000	94.425	167.5241
180.000000	94.448	167.5275
182.500000	94.461	167.4519
185.000000	94.461	167.3348
187.500000	94.449	167.2174
190.000000	94.427	167.1199
192.500000	94.398	167.0448
195.000000	94.365	166.9944
197.500000	94.329	166.9730
200.000000	94.291	166.9781
203.000000	94.244	167.0187
206.000000	94.199	167.0931
209.000000	94.155	167.1884
212.000000	94.111	167.2940
214.000000	94.081	167.3701
218.000000	94.025	167.5327
220.000000	93.998	167.6188
224.000000	93.944	167.8044
227.000000	93.904	167.9530
230.000000	93.865	168.1071
233.000000	93.827	168.2677
236.000000	93.790	168.4345
240.000000	93.742	168.6623
243.000000	93.707	168.8372
247.000000	93.662	169.0793
250.000000	93.629	169.2677
254.000000	93.587	169.5208
258.000000	93.547	169.7746
262.000000	93.508	170.0347
265.000000	93.480	170.2323
269.000000	93.443	170.4965
272.000000	93.417	170.6966
276.000000	93.383	170.9647
280.000000	93.351	171.2360
285.000000	93.312	171.5743
290.000000	93.275	171.9129
295.000000	93.241	172.2507
300.000000	93.208	172.5888
304.000000	93.183	172.8597
307.000000	93.165	173.0612
311.000000	93.142	173.3260
315.000000	93.121	173.5858
320.000000	93.095	173.9098
325.000000	93.071	174.2290
330.000000	93.047	174.5378
335.000000	93.024	174.8429
340.000000	93.002	175.1465
345.000000	92.980	175.4507
350.000000	92.960	175.7573
355.000000	92.940	176.0617
360.000000	92.920	176.3653
365.000000	92.902	176.6676
370.000000	92.884	176.9693
375.000000	92.867	177.2694
382.000000	92.844	177.6846
387.000000	92.829	177.9808
395.000000	92.806	178.4558
400.000000	92.793	178.7494
406.000000	92.779	179.0982
412.000000	92.767	179.4429
418.000000	92.756	179.7785
425.000000	92.743	-179.8401
431.000000	92.732	-179.5183
437.000000	92.720	-179.2007
444.000000	92.708	-178.8318
450.000000	92.697	-178.5167
455.000000	92.689	-178.2559
462.000000	92.677	-177.8958
468.000000	92.668	-177.5902
475.000000	92.658	-177.2318
482.000000	92.648	-176.8740
487.000000	92.641	-176.6216
494.000000	92.632	-176.2679
500.000000	92.624	-175.9637
508.000000	92.615	-175.5603
515.000000	92.607	-175.2093
522.000000	92.599	-174.8588
530.000000	92.591	-174.4566
538.000000	92.583	-174.0558
545.000000	92.577	-173.7048
552.000000	92.571	-173.3511
560.000000	92.564	-172.9460
570.000000	92.557	-172.4391
580.000000	92.551	-171.9299
590.000000	92.546	-171.4188
600.000000	92.541	-170.9062
608.000000	92.538	-170.4920
615.000000	92.536	-170.1267
622.000000	92.535	-169.7608
630.000000	92.534	-169.3414
640.000000	92.534	-168.8115
650.000000	92.535	-168.2761
660.000000	92.538	-167.7388
670.000000	92.542	-167.1993
680.000000	92.548	-166.6563
690.000000	92.555	-166.1112
700.000000	92.564	-165.5621
710.000000	92.575	-165.0089
720.000000	92.588	-164.4548
730.000000	92.602	-163.8998
740.000000	92.618	-163.3389
750.000000	92.637	-162.7746
762.000000	92.662	-162.0985
775.000000	92.692	-161.3681
788.000000	92.727	-160.6385
800.000000	92.762	-159.9647
812.000000	92.800	-159.2943
825.000000	92.845	-158.5734
838.000000	92.895	-157.8598
850.000000	92.945	-157.2087
862.000000	92.998	-156.5659
875.000000	93.059	-155.8831
885.000000	93.110	-155.3680
900.000000	93.189	-154.6107
912.000000	93.257	-154.0253
925.000000	93.333	-153.4137
938.000000	93.412	-152.8239
950.000000	93.488	-152.3009
962.000000	93.567	-151.7998
975.000000	93.654	-151.2824
988.000000	93.743	-150.7946
1000.000000	93.826	-150.3713
1015.000000	93.930	-149.8773
1030.000000	94.032	-149.4178
1044.000000	94.123	-148.9986
1060.000000	94.227	-148.4671
1075.000000	94.343	-147.8989
1090.000000	94.491	-147.4385
1106.000000	94.648	-147.2641
1120.000000	94.757	-147.2315
1138.000000	94.876	-147.1372
1150.000000	94.951	-147.0432
1172.000000	95.088	-146.8640
1180.000000	95.137	-146.8036
1206.000000	95.293	-146.6319
1220.000000	95.375	-146.5542
1241.000000	95.494	-146.4570
1250.000000	95.544	-146.4208
1265.000000	95.625	-146.3657
1280.000000	95.704	-146.3167
1315.000000	95.880	-146.2180
1320.000000	95.904	-146.2053
1340.000000	96.000	-146.1570
1360.000000	96.092	-146.1109
1380.000000	96.183	-146.0649
1400.000000	96.271	-146.0202
1430.000000	96.400	-145.9525
1450.000000	96.485	-145.9057
1475.000000	96.590	-145.8466
1500.000000	96.693	-145.7875
1525.000000	96.795	-145.7276
1550.000000	96.897	-145.6688
1575.000000	96.999	-145.6120
1600.000000	97.101	-145.5578
1625.000000	97.202	-145.5074
1650.000000	97.304	-145.4626
1675.000000	97.406	-145.4251
1700.000000	97.509	-145.3954
1725.000000	97.612	-145.3736
1750.000000	97.716	-145.3616
1775.000000	97.820	-145.3598
1800.000000	97.924	-145.3691
1825.000000	98.030	-145.3913
1850.000000	98.135	-145.4269
1875.000000	98.241	-145.4750
1900.000000	98.347	-145.5350
1925.000000	98.453	-145.6068
1950.000000	98.559	-145.6895
1975.000000	98.664	-145.7817
2000.000000	98.770	-145.8818
2030.000000	98.899	-146.0096
2060.000000	99.030	-146.1493
2090.000000	99.166	-146.3132
2120.000000	99.309	-146.5227
2140.000000	99.406	-146.7068
2180.000000	99.598	-147.1711
2200.000000	99.689	-147.4259
2240.000000	99.860	-147.9621
2270.000000	99.983	-148.3918
2300.000000	100.104	-148.8384
2330.000000	100.223	-149.3071
2360.000000	100.342	-149.8078
2400.000000	100.496	-150.5346
2430.000000	100.607	-151.1223
2470.000000	100.748	-151.9533
2500.000000	100.847	-152.6052
2540.000000	100.972	-153.5056
2580.000000	101.088	-154.4372
2620.000000	101.194	-155.3955
2650.000000	101.268	-156.1310
2690.000000	101.359	-157.1318
2720.000000	101.421	-157.8948
2760.000000	101.496	-158.9255
2800.000000	101.561	-159.9677
2850.000000	101.629	-161.2790
2900.000000	101.681	-162.5899
2950.000000	101.719	-163.8895
3000.000000	101.742	-165.1652
3040.000000	101.750	-166.1596
3070.000000	101.751	-166.8869
3110.000000	101.746	-167.8268
3150.000000	101.734	-168.7254
3200.000000	101.712	-169.7827
3250.000000	101.685	-170.7591
3300.000000	101.658	-171.6542
3350.000000	101.637	-172.4838
3400.000000	101.629	-173.3009
3450.000000	101.630	-174.1873
3500.000000	101.630	-175.1957
3550.000000	101.615	-176.3061
3600.000000	101.578	-177.4496
3650.000000	101.520	-178.5605
3700.000000	101.447	-179.6010
3750.000000	101.363	179.4426
3820.000000	101.236	178.2372
3870.000000	101.142	177.4538
3950.000000	100.988	176.3027
4000.000000	100.889	175.6382
4060.000000	100.768	174.8959
4120.000000	100.643	174.2197
4180.000000	100.518	173.6121
4250.000000	100.373	172.9854
4310.000000	100.255	172.5000
4370.000000	100.141	172.0266
4440.000000	100.010	171.4585
4500.000000	99.894	170.9595
4550.000000	99.793	170.5463
4620.000000	99.643	169.9949
4680.000000	99.507	169.5643
4750.000000	99.340	169.1334
4820.000000	99.168	168.7986
4870.000000	99.045	168.6100
4940.000000	98.876	168.3880
5000.000000	98.735	168.2377
5080.000000	98.552	168.0869
5150.000000	98.392	167.9890
5220.000000	98.232	167.9225
5300.000000	98.046	167.8937
5380.000000	97.855	167.9364
5450.000000	97.685	168.0504
5520.000000	97.513	168.2475
5600.000000	97.315	168.5880
5700.000000	97.071	169.2098
5800.000000	96.836	170.0987
5900.000000	96.633	171.2985
6000.000000	96.494	172.6108
6080.000000	96.413	173.5231
6150.000000	96.341	174.2487
6220.000000	96.266	175.0021
6300.000000	96.184	175.9481
6400.000000	96.099	177.2615
6500.000000	96.044	178.6944
6600.000000	96.027	-179.7973
6700.000000	96.053	-178.2702
6800.000000	96.120	-176.7673
6900.000000	96.232	-175.3174
7000.000000	96.390	-173.9543
7100.000000	96.598	-172.7096
7200.000000	96.864	-171.6390
7300.000000	97.191	-170.8500
7400.000000	97.576	-170.4901
7500.000000	98.003	-170.6923
7620.000000	98.545	-171.7356
7750.000000	99.159	-173.9537
7880.000000	99.768	-177.6214
8000.000000	100.247	177.4668
8120.000000	100.551	171.1011
8250.000000	100.582	163.0099
8380.000000	100.242	154.6392
8500.000000	99.610	147.6236
8620.000000	98.741	141.9481
8750.000000	97.632	137.6092
8850.000000	96.726	135.5030
9000.000000	95.371	134.0208
9120.000000	94.328	134.0061
9250.000000	93.258	134.9216
9380.000000	92.258	136.6027
9500.000000	91.399	138.6705
9620.000000	90.593	141.1230
9750.000000	89.769	144.1635
9880.000000	88.989	147.5959
10000.000000	88.301	151.1221
10150.000000	87.484	156.0730
10300.000000	86.713	161.7363
10440.000000	86.043	167.8690
10600.000000	85.388	176.1883
10750.000000	84.986	-174.6537
10900.000000	84.932	-164.4426
11060.000000	85.431	-153.3764
11200.000000	86.354	-145.0430
11380.000000	87.889	-138.3255
11500.000000	88.879	-136.7287
11720.000000	90.255	-138.0288
11800.000000	90.596	-139.1176
12060.000000	91.313	-142.2580
12200.000000	91.602	-143.2845
12410.000000	92.077	-144.3960
12500.000000	92.310	-144.9349
12650.000000	92.735	-146.1726
12800.000000	93.187	-148.0594
13150.000000	94.111	-156.1224
13200.000000	94.196	-157.7193
13400.000000	94.336	-164.8805
13600.000000	94.107	-172.4044
13800.000000	93.528	-179.0322
14000.000000	92.704	176.0940
14300.000000	91.316	172.4298
14500.000000	90.454	171.8896
14750.000000	89.543	172.4967
15000.000000	88.847	173.8061
15250.000000	88.365	175.0743
15500.000000	88.059	175.6183
15750.000000	87.844	174.8334
16000.000000	87.586	172.3609
16250.000000	87.115	168.4006
16500.000000	86.304	163.8764
16750.000000	85.117	160.0999
17000.000000	83.623	158.1257
17250.000000	81.949	158.3971
17500.000000	80.224	160.8580
17750.000000	78.544	165.2227
18000.000000	76.987	171.0596
18250.000000	75.594	177.7432
18500.000000	74.323	-175.1857
18750.000000	73.092	-167.0651
19000.000000	72.059	-157.7006
19250.000000	71.332	-148.9110
19500.000000	70.646	-141.3436
19750.000000	69.878	-134.3821
