* Measurement data measured by REW V5.20.13
* Source: EXCL: Headset (KM-HIFI-384KHZ), MICROPHONE (Master Volume), 0, volume: 1.000
* Format: 256k Log Swept Sine, 1 sweep at -24.0 dBFS with no timing reference
* Dated: Oct 13, 2023 9:22:36 PM
* REW Settings:
*  C-weighting compensation: Off
*  Target level: 75.0 dB
* Note: ; 
* Measurement: Dunu Zen Pro SD++ R
* Smoothing: 1/24 octave
* Frequency Step: 1/48 octave
* Start Frequency: 20.000 Hz
*
* Freq(Hz)	SPL(dB)	Phase(degrees)
20.000000	94.468	-121.6507
20.299999	94.539	-122.4309
20.600000	94.607	-123.1947
20.900000	94.671	-123.9400
21.200001	94.734	-124.6670
21.400000	94.775	-125.1429
21.799999	94.854	-126.0757
22.000000	94.892	-126.5331
22.400000	94.966	-127.4297
22.700001	95.020	-128.0862
23.000000	95.073	-128.7311
23.299999	95.126	-129.3699
23.600000	95.177	-130.0077
24.000000	95.241	-130.8602
24.299999	95.284	-131.4954
24.700001	95.336	-132.3184
25.000000	95.371	-132.9029
25.400000	95.417	-133.6303
25.799999	95.467	-134.3156
26.200001	95.522	-134.9981
26.500000	95.564	-135.5294
26.900000	95.618	-136.2699
27.200001	95.653	-136.8360
27.600000	95.692	-137.5747
28.000000	95.725	-138.2659
28.500000	95.767	-139.0595
29.000000	95.815	-139.8196
29.500000	95.865	-140.5877
30.000000	95.912	-141.3641
30.400000	95.946	-141.9746
30.700001	95.972	-142.4215
31.100000	96.005	-143.0060
31.500000	96.038	-143.5855
32.000000	96.078	-144.3091
32.500000	96.114	-145.0255
33.000000	96.146	-145.7233
33.500000	96.177	-146.4009
34.000000	96.205	-147.0648
34.500000	96.231	-147.7190
35.000000	96.255	-148.3609
35.500000	96.275	-148.9863
36.000000	96.294	-149.5954
36.500000	96.311	-150.1911
37.000000	96.325	-150.7750
37.500000	96.337	-151.3434
38.200001	96.351	-152.1018
38.700001	96.359	-152.6139
39.500000	96.373	-153.3924
40.000000	96.381	-153.8544
40.599998	96.391	-154.3739
41.200001	96.405	-154.8499
41.799999	96.424	-155.2988
42.500000	96.456	-155.8279
43.099998	96.487	-156.3106
43.700001	96.519	-156.8265
44.400002	96.552	-157.4633
45.000000	96.577	-158.0239
45.500000	96.594	-158.4908
46.200001	96.615	-159.1395
46.799999	96.630	-159.6969
47.500000	96.645	-160.3518
48.200001	96.654	-161.0016
48.700001	96.659	-161.4566
49.400002	96.662	-162.0805
50.000000	96.662	-162.6023
50.799999	96.660	-163.2686
51.500000	96.657	-163.8222
52.200001	96.656	-164.3679
53.000000	96.651	-164.9935
53.799999	96.642	-165.5923
54.500000	96.634	-166.0822
55.200001	96.627	-166.5643
56.000000	96.618	-167.1223
57.000000	96.600	-167.7952
58.000000	96.582	-168.4244
59.000000	96.565	-169.0377
60.000000	96.547	-169.6406
60.799999	96.531	-170.1093
61.500000	96.517	-170.5063
62.200001	96.502	-170.8947
63.000000	96.485	-171.3331
64.000000	96.462	-171.8695
65.000000	96.438	-172.3902
66.000000	96.413	-172.8979
67.000000	96.386	-173.3893
68.000000	96.358	-173.8667
69.000000	96.329	-174.3243
70.000000	96.298	-174.7565
71.000000	96.266	-175.1672
72.000000	96.235	-175.5530
73.000000	96.203	-175.9256
74.000000	96.171	-176.2898
75.000000	96.138	-176.6417
76.199997	96.099	-177.0646
77.500000	96.054	-177.5268
78.800003	96.005	-177.9767
80.000000	95.958	-178.3508
81.199997	95.911	-178.6928
82.500000	95.858	-179.0141
83.800003	95.806	-179.2896
85.000000	95.758	-179.5107
86.199997	95.709	-179.7161
87.500000	95.653	-179.9142
88.500000	95.610	179.9783
90.000000	95.552	179.8565
91.199997	95.509	179.7872
92.500000	95.465	179.7544
93.800003	95.426	179.7669
95.000000	95.395	179.8195
96.199997	95.371	179.8974
97.500000	95.353	-179.9996
98.800003	95.346	-179.8924
100.000000	95.348	-179.8071
101.500000	95.359	-179.7152
103.000000	95.381	-179.6474
104.400002	95.413	-179.6452
106.000000	95.454	-179.7449
107.500000	95.495	-179.9385
109.000000	95.534	179.7668
110.599998	95.569	179.3584
112.000000	95.589	178.9398
113.800003	95.597	178.3658
115.000000	95.590	177.9955
117.199997	95.566	177.3766
118.000000	95.555	177.1602
120.599998	95.510	176.4547
122.000000	95.479	176.1285
124.099998	95.434	175.7135
125.000000	95.416	175.5460
126.500000	95.386	175.2711
128.000000	95.355	174.9982
131.500000	95.279	174.3671
132.000000	95.268	174.2795
134.000000	95.221	173.9382
136.000000	95.170	173.6172
138.000000	95.117	173.3315
140.000000	95.063	173.0822
143.000000	94.986	172.7367
145.000000	94.935	172.5245
147.500000	94.870	172.2956
150.000000	94.807	172.0975
152.500000	94.746	171.9192
155.000000	94.686	171.7565
157.500000	94.627	171.6102
160.000000	94.569	171.4806
162.500000	94.513	171.3708
165.000000	94.458	171.2732
167.500000	94.403	171.1850
170.000000	94.348	171.1128
172.500000	94.296	171.0544
175.000000	94.244	171.0104
177.500000	94.194	170.9818
180.000000	94.145	170.9598
182.500000	94.097	170.9388
185.000000	94.051	170.9213
187.500000	94.006	170.9105
190.000000	93.961	170.9068
192.500000	93.917	170.9083
195.000000	93.873	170.9127
197.500000	93.829	170.9227
200.000000	93.786	170.9403
203.000000	93.736	170.9729
206.000000	93.687	171.0164
209.000000	93.639	171.0676
212.000000	93.592	171.1250
214.000000	93.562	171.1678
218.000000	93.503	171.2627
220.000000	93.475	171.3119
224.000000	93.420	171.4135
227.000000	93.380	171.4933
230.000000	93.341	171.5719
233.000000	93.303	171.6489
236.000000	93.265	171.7310
240.000000	93.214	171.8500
243.000000	93.177	171.9451
247.000000	93.129	172.0794
250.000000	93.093	172.1805
254.000000	93.047	172.3160
258.000000	93.002	172.4617
262.000000	92.957	172.6145
265.000000	92.924	172.7307
269.000000	92.882	172.8915
272.000000	92.852	173.0169
276.000000	92.811	173.1877
280.000000	92.772	173.3586
285.000000	92.724	173.5792
290.000000	92.677	173.8065
295.000000	92.633	174.0342
300.000000	92.591	174.2661
304.000000	92.558	174.4536
307.000000	92.533	174.5958
311.000000	92.501	174.7903
315.000000	92.469	174.9911
320.000000	92.432	175.2477
325.000000	92.396	175.5022
330.000000	92.362	175.7555
335.000000	92.329	176.0084
340.000000	92.297	176.2614
345.000000	92.266	176.5139
350.000000	92.236	176.7675
355.000000	92.207	177.0248
360.000000	92.179	177.2848
365.000000	92.151	177.5451
370.000000	92.125	177.8084
375.000000	92.099	178.0716
382.000000	92.064	178.4401
387.000000	92.040	178.7072
395.000000	92.004	179.1357
400.000000	91.981	179.4077
406.000000	91.957	179.7336
412.000000	91.933	-179.9415
418.000000	91.911	-179.6165
425.000000	91.887	-179.2355
431.000000	91.868	-178.9076
437.000000	91.849	-178.5828
444.000000	91.829	-178.2070
450.000000	91.812	-177.8884
455.000000	91.799	-177.6261
462.000000	91.780	-177.2580
468.000000	91.766	-176.9416
475.000000	91.749	-176.5739
482.000000	91.733	-176.2000
487.000000	91.722	-175.9282
494.000000	91.708	-175.5489
500.000000	91.697	-175.2250
508.000000	91.683	-174.7918
515.000000	91.671	-174.4158
522.000000	91.660	-174.0408
530.000000	91.650	-173.6090
538.000000	91.640	-173.1758
545.000000	91.633	-172.7978
552.000000	91.626	-172.4181
560.000000	91.619	-171.9830
570.000000	91.612	-171.4402
580.000000	91.607	-170.8949
590.000000	91.604	-170.3427
600.000000	91.603	-169.7857
608.000000	91.605	-169.3433
615.000000	91.607	-168.9612
622.000000	91.611	-168.5835
630.000000	91.616	-168.1541
640.000000	91.622	-167.6194
650.000000	91.629	-167.0869
660.000000	91.639	-166.5516
670.000000	91.649	-166.0139
680.000000	91.661	-165.4744
690.000000	91.675	-164.9345
700.000000	91.691	-164.3969
710.000000	91.708	-163.8598
720.000000	91.727	-163.3202
730.000000	91.747	-162.7779
740.000000	91.770	-162.2353
750.000000	91.794	-161.6959
762.000000	91.827	-161.0486
775.000000	91.867	-160.3445
788.000000	91.911	-159.6525
800.000000	91.955	-159.0313
812.000000	92.002	-158.4185
825.000000	92.055	-157.7625
838.000000	92.110	-157.1169
850.000000	92.165	-156.5289
862.000000	92.223	-155.9521
875.000000	92.289	-155.3423
885.000000	92.342	-154.8839
900.000000	92.425	-154.2168
912.000000	92.495	-153.7013
925.000000	92.573	-153.1630
938.000000	92.653	-152.6480
950.000000	92.730	-152.1931
962.000000	92.808	-151.7581
975.000000	92.895	-151.3115
988.000000	92.984	-150.8926
1000.000000	93.067	-150.5293
1015.000000	93.173	-150.1084
1030.000000	93.279	-149.7258
1044.000000	93.379	-149.4007
1060.000000	93.493	-149.0673
1075.000000	93.600	-148.7921
1090.000000	93.707	-148.5516
1106.000000	93.819	-148.3334
1120.000000	93.917	-148.1753
1138.000000	94.041	-148.0182
1150.000000	94.121	-147.9423
1172.000000	94.264	-147.8626
1180.000000	94.314	-147.8527
1206.000000	94.464	-147.8632
1220.000000	94.537	-147.8718
1241.000000	94.643	-147.8594
1250.000000	94.689	-147.8497
1265.000000	94.767	-147.8472
1280.000000	94.847	-147.8802
1315.000000	95.023	-148.1330
1320.000000	95.045	-148.1871
1340.000000	95.126	-148.4363
1360.000000	95.190	-148.7204
1380.000000	95.234	-149.0051
1400.000000	95.258	-149.2455
1430.000000	95.261	-149.4189
1450.000000	95.250	-149.3509
1475.000000	95.236	-149.0364
1500.000000	95.237	-148.4809
1525.000000	95.266	-147.7337
1550.000000	95.337	-146.9230
1575.000000	95.441	-146.1818
1600.000000	95.567	-145.5612
1625.000000	95.703	-145.0612
1650.000000	95.845	-144.6637
1675.000000	95.988	-144.3534
1700.000000	96.132	-144.1182
1725.000000	96.275	-143.9442
1750.000000	96.416	-143.8218
1775.000000	96.556	-143.7465
1800.000000	96.695	-143.7119
1825.000000	96.832	-143.7125
1850.000000	96.967	-143.7459
1875.000000	97.100	-143.8110
1900.000000	97.232	-143.9071
1925.000000	97.362	-144.0325
1950.000000	97.491	-144.1833
1975.000000	97.618	-144.3596
2000.000000	97.743	-144.5626
2030.000000	97.890	-144.8393
2060.000000	98.035	-145.1489
2090.000000	98.176	-145.4909
2120.000000	98.314	-145.8622
2140.000000	98.404	-146.1196
2180.000000	98.584	-146.6613
2200.000000	98.674	-146.9595
2240.000000	98.849	-147.6290
2270.000000	98.974	-148.1784
2300.000000	99.092	-148.7555
2330.000000	99.205	-149.3508
2360.000000	99.314	-149.9517
2400.000000	99.461	-150.7967
2430.000000	99.568	-151.4922
2470.000000	99.700	-152.4485
2500.000000	99.789	-153.1728
2540.000000	99.896	-154.1713
2580.000000	99.993	-155.2013
2620.000000	100.079	-156.2552
2650.000000	100.137	-157.0575
2690.000000	100.205	-158.1392
2720.000000	100.248	-158.9571
2760.000000	100.297	-160.0505
2800.000000	100.334	-161.1433
2850.000000	100.366	-162.5002
2900.000000	100.381	-163.8334
2950.000000	100.382	-165.1355
3000.000000	100.369	-166.4039
3040.000000	100.348	-167.3915
3070.000000	100.328	-168.1148
3110.000000	100.293	-169.0535
3150.000000	100.249	-169.9580
3200.000000	100.183	-171.0321
3250.000000	100.106	-172.0338
3300.000000	100.020	-172.9537
3350.000000	99.925	-173.7857
3400.000000	99.825	-174.5264
3450.000000	99.721	-175.1748
3500.000000	99.614	-175.7314
3550.000000	99.506	-176.1994
3600.000000	99.397	-176.5754
3650.000000	99.290	-176.8572
3700.000000	99.189	-177.0761
3750.000000	99.095	-177.2405
3820.000000	98.975	-177.3677
3870.000000	98.897	-177.3954
3950.000000	98.788	-177.3452
4000.000000	98.731	-177.2646
4060.000000	98.674	-177.1310
4120.000000	98.632	-176.9707
4180.000000	98.605	-176.8018
4250.000000	98.593	-176.6213
4310.000000	98.599	-176.5055
4370.000000	98.618	-176.4461
4440.000000	98.656	-176.4726
4500.000000	98.698	-176.5941
4550.000000	98.739	-176.7736
4620.000000	98.801	-177.1560
4680.000000	98.856	-177.6148
4750.000000	98.918	-178.3141
4820.000000	98.971	-179.1944
4870.000000	99.000	-179.9308
4940.000000	99.024	178.8991
5000.000000	99.024	177.7847
5080.000000	98.989	176.1805
5150.000000	98.921	174.7162
5220.000000	98.816	173.2505
5300.000000	98.651	171.6444
5380.000000	98.441	170.1896
5450.000000	98.224	169.0962
5520.000000	97.983	168.2098
5600.000000	97.686	167.4842
5700.000000	97.299	167.0345
5800.000000	96.911	167.0935
5900.000000	96.540	167.6345
6000.000000	96.200	168.6113
6080.000000	95.958	169.6696
6150.000000	95.773	170.7724
6220.000000	95.616	172.0185
6300.000000	95.474	173.5916
6400.000000	95.359	175.7364
6500.000000	95.321	178.0192
6600.000000	95.366	-179.6262
6700.000000	95.505	-177.2700
6800.000000	95.747	-174.9983
6900.000000	96.105	-172.9214
7000.000000	96.594	-171.1868
7100.000000	97.230	-169.9967
7200.000000	98.030	-169.6488
7300.000000	99.007	-170.6206
7400.000000	100.129	-173.6762
7500.000000	101.267	-179.8151
7620.000000	102.297	167.6781
7750.000000	102.459	149.2570
7880.000000	101.384	131.6762
8000.000000	99.587	120.6949
8120.000000	97.503	115.1388
8250.000000	95.329	113.4941
8380.000000	93.429	114.5141
8500.000000	91.929	116.6869
8620.000000	90.610	119.6321
8750.000000	89.347	123.5458
8850.000000	88.485	126.9451
9000.000000	87.359	132.4794
9120.000000	86.590	137.1706
9250.000000	85.881	142.4254
9380.000000	85.307	147.7653
9500.000000	84.929	152.5809
9620.000000	84.776	156.5627
9750.000000	84.850	157.6332
9880.000000	84.344	156.7996
10000.000000	82.794	164.7661
10150.000000	81.669	179.6547
10300.000000	81.770	-171.1619
10440.000000	81.944	-164.6649
10600.000000	82.142	-157.6083
10750.000000	82.390	-151.0832
10900.000000	82.731	-144.6588
11060.000000	83.223	-137.9657
11200.000000	83.781	-132.2977
11380.000000	84.712	-125.3813
11500.000000	85.498	-121.1065
11720.000000	87.406	-114.4898
11800.000000	88.292	-112.7295
12060.000000	91.951	-112.2254
12200.000000	94.098	-118.4139
12410.000000	96.226	-141.2423
12500.000000	96.390	-154.5042
12650.000000	95.560	-174.7300
12800.000000	93.711	172.6083
13150.000000	88.822	168.1396
13200.000000	88.264	168.9863
13400.000000	86.465	173.8576
13600.000000	85.244	-179.9743
13800.000000	84.474	-173.2866
14000.000000	84.086	-166.4979
14300.000000	84.176	-156.7420
14500.000000	84.728	-151.0971
14750.000000	86.057	-146.3684
15000.000000	88.024	-147.1934
15250.000000	89.895	-158.5501
15500.000000	90.380	179.2806
15750.000000	88.888	158.2686
16000.000000	86.131	148.0774
16250.000000	83.296	146.4620
16500.000000	81.053	147.6707
16750.000000	79.246	148.2975
17000.000000	77.336	148.7168
17250.000000	74.929	154.8513
17500.000000	73.068	169.3222
17750.000000	73.259	-179.0066
18000.000000	74.038	-178.3339
18250.000000	74.046	174.6945
18500.000000	73.061	166.9604
18750.000000	71.353	162.9565
19000.000000	69.357	163.4019
19250.000000	67.425	166.9576
19500.000000	65.682	172.0800
19750.000000	64.167	177.3162
