* Measurement data measured by REW V5.20.13
* Source: EXCL: Headset (3- KM-HIFI-384KHZ), MICROPHONE (Master Volume), 0, volume: 1.000
* Format: 256k Log Swept Sine, 1 sweep at -24.0 dBFS with no timing reference
* Dated: Sep 24, 2023 11:59:07 AM
* REW Settings:
*  C-weighting compensation: Off
*  Target level: 75.0 dB
* Note: ; 
* Measurement: Dunu Titan S R
* Smoothing: 1/24 octave
* Frequency Step: 1/48 octave
* Start Frequency: 20.000 Hz
*
* Freq(Hz)	SPL(dB)	Phase(degrees)
20.000000	81.842	-139.3355
20.299999	81.874	-140.1610
20.600000	81.902	-140.9498
20.900000	81.929	-141.6956
21.200001	81.957	-142.4009
21.400000	81.978	-142.8570
21.799999	82.025	-143.7569
22.000000	82.050	-144.2113
22.400000	82.100	-145.1447
22.700001	82.135	-145.8644
23.000000	82.165	-146.5886
23.299999	82.189	-147.3005
23.600000	82.210	-147.9876
24.000000	82.233	-148.8549
24.299999	82.250	-149.4720
24.700001	82.273	-150.2656
25.000000	82.291	-150.8515
25.400000	82.315	-151.6300
25.799999	82.335	-152.4034
26.200001	82.351	-153.1601
26.500000	82.362	-153.7102
26.900000	82.374	-154.4189
27.200001	82.384	-154.9370
27.600000	82.399	-155.6205
28.000000	82.413	-156.3059
28.500000	82.427	-157.1644
29.000000	82.436	-158.0047
29.500000	82.443	-158.8090
30.000000	82.451	-159.5836
30.400000	82.457	-160.1964
30.700001	82.462	-160.6564
31.100000	82.466	-161.2666
31.500000	82.467	-161.8630
32.000000	82.467	-162.5766
32.500000	82.467	-163.2586
33.000000	82.467	-163.9287
33.500000	82.467	-164.5973
34.000000	82.463	-165.2549
34.500000	82.456	-165.8865
35.000000	82.450	-166.4917
35.500000	82.444	-167.0850
36.000000	82.440	-167.6794
36.500000	82.433	-168.2737
37.000000	82.424	-168.8566
37.500000	82.414	-169.4212
38.200001	82.401	-170.1893
38.700001	82.392	-170.7322
39.500000	82.374	-171.5850
40.000000	82.361	-172.0955
40.599998	82.345	-172.6865
41.200001	82.331	-173.2696
41.799999	82.314	-173.8491
42.500000	82.291	-174.5034
43.099998	82.271	-175.0391
43.700001	82.252	-175.5641
44.400002	82.230	-176.1733
45.000000	82.209	-176.6893
45.500000	82.191	-177.1118
46.200001	82.164	-177.6891
46.799999	82.141	-178.1652
47.500000	82.115	-178.6986
48.200001	82.090	-179.2229
48.700001	82.073	-179.5959
49.400002	82.047	179.8905
50.000000	82.024	179.4609
50.799999	81.991	178.8999
51.500000	81.960	178.4297
52.200001	81.929	177.9867
53.000000	81.894	177.5005
53.799999	81.860	177.0238
54.500000	81.832	176.6089
55.200001	81.803	176.1840
56.000000	81.767	175.6913
57.000000	81.716	175.1068
58.000000	81.664	174.5776
59.000000	81.616	174.1007
60.000000	81.578	173.6115
60.799999	81.545	173.1825
61.500000	81.511	172.8116
62.200001	81.476	172.4653
63.000000	81.436	172.0919
64.000000	81.386	171.6470
65.000000	81.337	171.2265
66.000000	81.289	170.8156
67.000000	81.240	170.4212
68.000000	81.191	170.0645
69.000000	81.148	169.7150
70.000000	81.105	169.3403
71.000000	81.058	168.9671
72.000000	81.010	168.6212
73.000000	80.962	168.3005
74.000000	80.917	167.9945
75.000000	80.872	167.6944
76.199997	80.818	167.3461
77.500000	80.761	166.9865
78.800003	80.705	166.6351
80.000000	80.654	166.3141
81.199997	80.603	165.9955
82.500000	80.547	165.6632
83.800003	80.491	165.3502
85.000000	80.438	165.0851
86.199997	80.388	164.8372
87.500000	80.336	164.5325
88.500000	80.288	164.2950
90.000000	80.221	164.0425
91.199997	80.179	163.8119
92.500000	80.131	163.5204
93.800003	80.078	163.2403
95.000000	80.028	163.0085
96.199997	79.977	162.7971
97.500000	79.922	162.5784
98.800003	79.866	162.3636
100.000000	79.814	162.1726
101.500000	79.749	161.9468
103.000000	79.686	161.7332
104.400002	79.626	161.5432
106.000000	79.557	161.3428
107.500000	79.492	161.1726
109.000000	79.427	161.0222
110.599998	79.358	160.8790
112.000000	79.299	160.7623
113.800003	79.221	160.6220
115.000000	79.167	160.5436
117.199997	79.068	160.4258
118.000000	79.031	160.4012
120.599998	78.916	160.4406
122.000000	78.861	160.5370
124.099998	78.792	160.7599
125.000000	78.770	160.8729
126.500000	78.743	161.0529
128.000000	78.730	161.1786
131.500000	78.720	161.1011
132.000000	78.717	161.0524
134.000000	78.697	160.8081
136.000000	78.661	160.5363
138.000000	78.613	160.2847
140.000000	78.557	160.0656
143.000000	78.468	159.8138
145.000000	78.408	159.6905
147.500000	78.331	159.5852
150.000000	78.257	159.5209
152.500000	78.188	159.4698
155.000000	78.121	159.4190
157.500000	78.053	159.3815
160.000000	77.986	159.3618
162.500000	77.919	159.3647
165.000000	77.856	159.3932
167.500000	77.796	159.4447
170.000000	77.741	159.5069
172.500000	77.689	159.5651
175.000000	77.640	159.6115
177.500000	77.594	159.6438
180.000000	77.548	159.6588
182.500000	77.500	159.6630
185.000000	77.450	159.6714
187.500000	77.399	159.6945
190.000000	77.348	159.7314
192.500000	77.296	159.7809
195.000000	77.246	159.8433
197.500000	77.197	159.9182
200.000000	77.150	160.0076
203.000000	77.097	160.1307
206.000000	77.049	160.2583
209.000000	77.004	160.3813
212.000000	76.961	160.5049
214.000000	76.934	160.5906
218.000000	76.887	160.7553
220.000000	76.865	160.8267
224.000000	76.826	160.9300
227.000000	76.795	160.9694
230.000000	76.762	160.9880
233.000000	76.724	161.0029
236.000000	76.683	161.0250
240.000000	76.628	161.0748
243.000000	76.586	161.1298
247.000000	76.531	161.2195
250.000000	76.490	161.2946
254.000000	76.437	161.4030
258.000000	76.386	161.5226
262.000000	76.336	161.6467
265.000000	76.300	161.7398
269.000000	76.253	161.8680
272.000000	76.219	161.9675
276.000000	76.175	162.1064
280.000000	76.132	162.2553
285.000000	76.080	162.4412
290.000000	76.029	162.6235
295.000000	75.980	162.8047
300.000000	75.933	162.9848
304.000000	75.897	163.1339
307.000000	75.870	163.2471
311.000000	75.835	163.3977
315.000000	75.801	163.5463
320.000000	75.760	163.7310
325.000000	75.720	163.9139
330.000000	75.681	164.0939
335.000000	75.643	164.2805
340.000000	75.606	164.4705
345.000000	75.570	164.6552
350.000000	75.535	164.8373
355.000000	75.501	165.0205
360.000000	75.468	165.2032
365.000000	75.436	165.3848
370.000000	75.405	165.5689
375.000000	75.374	165.7514
382.000000	75.333	166.0103
387.000000	75.304	166.1986
395.000000	75.260	166.4989
400.000000	75.235	166.6852
406.000000	75.206	166.8997
412.000000	75.178	167.1045
418.000000	75.151	167.3050
425.000000	75.118	167.5416
431.000000	75.091	167.7440
437.000000	75.064	167.9426
444.000000	75.033	168.1730
450.000000	75.008	168.3729
455.000000	74.987	168.5400
462.000000	74.959	168.7759
468.000000	74.935	168.9788
475.000000	74.908	169.2106
482.000000	74.882	169.4410
487.000000	74.864	169.6069
494.000000	74.840	169.8411
500.000000	74.819	170.0414
508.000000	74.792	170.3049
515.000000	74.770	170.5367
522.000000	74.748	170.7679
530.000000	74.724	171.0300
538.000000	74.700	171.2922
545.000000	74.680	171.5220
552.000000	74.660	171.7508
560.000000	74.639	172.0126
570.000000	74.613	172.3467
580.000000	74.588	172.6789
590.000000	74.565	173.0103
600.000000	74.542	173.3406
608.000000	74.526	173.6076
615.000000	74.511	173.8459
622.000000	74.497	174.0858
630.000000	74.482	174.3617
640.000000	74.465	174.7065
650.000000	74.450	175.0473
660.000000	74.435	175.3875
670.000000	74.421	175.7301
680.000000	74.408	176.0779
690.000000	74.397	176.4286
700.000000	74.387	176.7823
710.000000	74.379	177.1422
720.000000	74.372	177.5029
730.000000	74.367	177.8653
740.000000	74.363	178.2305
750.000000	74.362	178.5959
762.000000	74.362	179.0357
775.000000	74.366	179.5154
788.000000	74.373	179.9961
800.000000	74.383	-179.5616
812.000000	74.396	-179.1199
825.000000	74.415	-178.6457
838.000000	74.437	-178.1789
850.000000	74.460	-177.7547
862.000000	74.487	-177.3388
875.000000	74.520	-176.8987
885.000000	74.547	-176.5697
900.000000	74.593	-176.0942
912.000000	74.633	-175.7304
925.000000	74.679	-175.3572
938.000000	74.729	-175.0075
950.000000	74.777	-174.7047
962.000000	74.828	-174.4228
975.000000	74.885	-174.1414
988.000000	74.945	-173.8871
1000.000000	75.001	-173.6789
1015.000000	75.073	-173.4559
1030.000000	75.146	-173.2754
1044.000000	75.215	-173.1441
1060.000000	75.292	-173.0390
1075.000000	75.364	-172.9841
1090.000000	75.433	-172.9702
1106.000000	75.504	-172.9930
1120.000000	75.562	-173.0371
1138.000000	75.636	-173.1289
1150.000000	75.683	-173.2135
1172.000000	75.761	-173.4003
1180.000000	75.788	-173.4771
1206.000000	75.867	-173.7535
1220.000000	75.906	-173.9152
1241.000000	75.959	-174.1698
1250.000000	75.980	-174.2832
1265.000000	76.014	-174.4807
1280.000000	76.044	-174.6905
1315.000000	76.101	-175.2184
1320.000000	76.108	-175.2956
1340.000000	76.129	-175.6049
1360.000000	76.144	-175.9073
1380.000000	76.153	-176.1970
1400.000000	76.157	-176.4690
1430.000000	76.156	-176.8445
1450.000000	76.152	-177.0712
1475.000000	76.142	-177.3308
1500.000000	76.129	-177.5587
1525.000000	76.113	-177.7573
1550.000000	76.094	-177.9313
1575.000000	76.074	-178.0773
1600.000000	76.052	-178.1965
1625.000000	76.029	-178.2910
1650.000000	76.006	-178.3608
1675.000000	75.982	-178.4086
1700.000000	75.958	-178.4326
1725.000000	75.934	-178.4330
1750.000000	75.909	-178.4106
1775.000000	75.886	-178.3670
1800.000000	75.863	-178.3038
1825.000000	75.840	-178.2183
1850.000000	75.819	-178.1091
1875.000000	75.799	-177.9802
1900.000000	75.781	-177.8324
1925.000000	75.764	-177.6682
1950.000000	75.750	-177.4901
1975.000000	75.738	-177.2985
2000.000000	75.727	-177.0950
2030.000000	75.718	-176.8358
2060.000000	75.710	-176.5607
2090.000000	75.705	-176.2693
2120.000000	75.703	-175.9573
2140.000000	75.703	-175.7397
2180.000000	75.709	-175.2882
2200.000000	75.715	-175.0530
2240.000000	75.731	-174.5643
2270.000000	75.748	-174.1833
2300.000000	75.768	-173.7914
2330.000000	75.794	-173.3936
2360.000000	75.823	-172.9911
2400.000000	75.869	-172.4478
2430.000000	75.909	-172.0357
2470.000000	75.969	-171.4814
2500.000000	76.020	-171.0658
2540.000000	76.095	-170.5140
2580.000000	76.178	-169.9684
2620.000000	76.272	-169.4308
2650.000000	76.348	-169.0339
2690.000000	76.458	-168.5177
2720.000000	76.548	-168.1442
2760.000000	76.676	-167.6678
2800.000000	76.815	-167.2200
2850.000000	77.004	-166.7083
2900.000000	77.211	-166.2640
2950.000000	77.435	-165.8998
3000.000000	77.678	-165.6310
3040.000000	77.885	-165.4991
3070.000000	78.048	-165.4548
3110.000000	78.276	-165.4788
3150.000000	78.515	-165.6085
3200.000000	78.827	-165.9370
3250.000000	79.154	-166.4698
3300.000000	79.494	-167.2307
3350.000000	79.844	-168.2440
3400.000000	80.204	-169.5445
3450.000000	80.575	-171.1929
3500.000000	80.949	-173.2831
3550.000000	81.312	-175.9177
3600.000000	81.641	-179.1599
3650.000000	81.910	177.0018
3700.000000	82.097	172.6435
3750.000000	82.187	167.8892
3820.000000	82.133	160.8729
3870.000000	81.966	155.8430
3950.000000	81.496	148.2250
4000.000000	81.095	143.9395
4060.000000	80.533	139.4262
4120.000000	79.911	135.6649
4180.000000	79.253	132.6620
4250.000000	78.472	130.0523
4310.000000	77.810	128.4872
4370.000000	77.166	127.4368
4440.000000	76.445	126.7421
4500.000000	75.852	126.5284
4550.000000	75.378	126.5794
4620.000000	74.744	126.9410
4680.000000	74.226	127.4936
4750.000000	73.653	128.3885
4820.000000	73.116	129.5110
4870.000000	72.753	130.4288
4940.000000	72.276	131.8456
5000.000000	71.894	133.1502
5080.000000	71.418	134.9723
5150.000000	71.027	136.6295
5220.000000	70.654	138.3427
5300.000000	70.242	140.4136
5380.000000	69.845	142.6774
5450.000000	69.518	144.8501
5520.000000	69.215	147.2184
5600.000000	68.914	150.1349
5700.000000	68.617	153.9482
5800.000000	68.405	157.8086
5900.000000	68.268	161.6320
6000.000000	68.194	165.3500
6080.000000	68.175	168.2343
6150.000000	68.183	170.6923
6220.000000	68.214	173.0983
6300.000000	68.275	175.7952
6400.000000	68.394	179.0913
6500.000000	68.563	-177.7024
6600.000000	68.786	-174.6103
6700.000000	69.065	-171.6762
6800.000000	69.402	-168.9253
6900.000000	69.801	-166.3844
7000.000000	70.271	-164.1142
7100.000000	70.818	-162.2140
7200.000000	71.443	-160.8243
7300.000000	72.140	-160.0994
7400.000000	72.900	-160.1851
7500.000000	73.715	-161.2590
7620.000000	74.740	-164.2839
7750.000000	75.783	-170.5747
7880.000000	76.467	179.6513
8000.000000	76.558	168.6399
8120.000000	76.034	157.8604
8250.000000	74.884	148.9131
8380.000000	73.412	143.8638
8500.000000	72.014	142.2314
8620.000000	70.712	142.6910
8750.000000	69.461	144.8276
8850.000000	68.621	147.2889
9000.000000	67.560	151.8935
9120.000000	66.876	156.0415
9250.000000	66.275	160.7360
9380.000000	65.788	165.5281
9500.000000	65.422	170.0256
9620.000000	65.126	174.5941
9750.000000	64.876	179.6682
9880.000000	64.709	-175.0752
10000.000000	64.643	-170.0661
10150.000000	64.701	-163.6296
10300.000000	64.951	-157.0765
10440.000000	65.407	-151.0589
10600.000000	66.247	-144.7958
10750.000000	67.355	-140.3381
10900.000000	68.680	-138.2593
11060.000000	70.123	-139.4343
11200.000000	71.246	-143.3401
11380.000000	72.343	-151.6531
11500.000000	72.792	-158.7972
11720.000000	72.882	-173.5433
11800.000000	72.663	-178.7637
12060.000000	71.188	168.0100
12200.000000	70.104	164.0397
12410.000000	68.426	161.9309
12500.000000	67.749	162.1501
12650.000000	66.721	163.6240
12800.000000	65.839	166.1520
13150.000000	64.359	174.6133
13200.000000	64.212	176.0104
13400.000000	63.782	-178.1341
13600.000000	63.606	-172.0487
13800.000000	63.690	-165.9961
14000.000000	64.055	-160.2545
14300.000000	65.227	-153.1868
14500.000000	66.469	-150.9060
14750.000000	68.320	-153.8563
15000.000000	69.707	-166.6205
15250.000000	69.607	173.6031
15500.000000	67.794	157.8764
15750.000000	65.021	152.1550
16000.000000	62.204	154.1512
16250.000000	59.800	160.4797
16500.000000	57.892	169.0844
16750.000000	56.434	178.9405
17000.000000	55.398	-170.4454
17250.000000	54.820	-159.4459
17500.000000	54.798	-148.5121
17750.000000	55.479	-138.7736
18000.000000	56.784	-132.3678
18250.000000	58.381	-130.9762
18500.000000	59.835	-135.5735
18750.000000	60.699	-145.3469
19000.000000	60.734	-156.7527
19250.000000	60.034	-165.4350
19500.000000	58.963	-169.4323
19750.000000	57.954	-169.9035
