* Measurement data measured by REW V5.20.13
* Source: EXCL: Headset (3- KM-HIFI-384KHZ), MICROPHONE (Master Volume), 0, volume: 1.000
* Format: 256k Log Swept Sine, 1 sweep at -24.0 dBFS with no timing reference
* Dated: Sep 24, 2023 12:00:11 PM
* REW Settings:
*  C-weighting compensation: Off
*  Target level: 75.0 dB
* Note: ; 
* Measurement: Dunu Titan S L
* Smoothing: 1/24 octave
* Frequency Step: 1/48 octave
* Start Frequency: 20.000 Hz
*
* Freq(Hz)	SPL(dB)	Phase(degrees)
20.000000	81.774	-155.3429
20.299999	81.779	-156.0957
20.600000	81.782	-156.8222
20.900000	81.786	-157.5255
21.200001	81.790	-158.2109
21.400000	81.793	-158.6611
21.799999	81.799	-159.5506
22.000000	81.801	-159.9914
22.400000	81.803	-160.8652
22.700001	81.802	-161.5090
23.000000	81.799	-162.1364
23.299999	81.794	-162.7422
23.600000	81.788	-163.3260
24.000000	81.781	-164.0762
24.299999	81.777	-164.6285
24.700001	81.772	-165.3652
25.000000	81.768	-165.9224
25.400000	81.758	-166.6662
25.799999	81.744	-167.3946
26.200001	81.726	-168.0926
26.500000	81.712	-168.5943
26.900000	81.693	-169.2397
27.200001	81.680	-169.7119
27.600000	81.662	-170.3303
28.000000	81.645	-170.9348
28.500000	81.622	-171.6667
29.000000	81.601	-172.3773
29.500000	81.581	-173.0795
30.000000	81.559	-173.7778
30.400000	81.539	-174.3256
30.700001	81.522	-174.7245
31.100000	81.499	-175.2374
31.500000	81.476	-175.7308
32.000000	81.448	-176.3282
32.500000	81.419	-176.9109
33.000000	81.390	-177.4798
33.500000	81.360	-178.0360
34.000000	81.330	-178.5845
34.500000	81.299	-179.1303
35.000000	81.266	-179.6719
35.500000	81.231	179.7982
36.000000	81.194	179.2887
36.500000	81.157	178.8048
37.000000	81.121	178.3456
37.500000	81.088	177.9040
38.200001	81.045	177.2955
38.700001	81.016	176.8594
39.500000	80.967	176.1667
40.000000	80.935	175.7465
40.599998	80.894	175.2617
41.200001	80.853	174.7990
41.799999	80.812	174.3531
42.500000	80.764	173.8408
43.099998	80.720	173.4037
43.700001	80.673	172.9810
44.400002	80.616	172.5277
45.000000	80.571	172.1709
45.500000	80.536	171.8745
46.200001	80.489	171.4369
46.799999	80.445	171.0557
47.500000	80.391	170.6489
48.200001	80.340	170.2817
48.700001	80.306	170.0235
49.400002	80.257	169.6653
50.000000	80.214	169.3787
50.799999	80.159	169.0154
51.500000	80.112	168.6890
52.200001	80.061	168.3670
53.000000	80.002	168.0214
53.799999	79.945	167.6758
54.500000	79.895	167.3662
55.200001	79.845	167.0582
56.000000	79.789	166.7057
57.000000	79.719	166.2747
58.000000	79.648	165.8962
59.000000	79.585	165.5584
60.000000	79.524	165.1854
60.799999	79.464	164.8959
61.500000	79.409	164.7064
62.200001	79.358	164.5490
63.000000	79.304	164.3464
64.000000	79.231	164.0908
65.000000	79.162	163.8300
66.000000	79.087	163.5523
67.000000	79.016	163.3177
68.000000	78.945	163.0578
69.000000	78.871	162.8687
70.000000	78.808	162.6946
71.000000	78.738	162.5089
72.000000	78.673	162.3975
73.000000	78.608	162.2120
74.000000	78.530	162.0955
75.000000	78.467	161.9910
76.199997	78.373	161.7781
77.500000	78.280	161.7039
78.800003	78.180	161.4558
80.000000	78.079	161.4531
81.199997	77.998	161.2918
82.500000	77.859	161.2757
83.800003	77.761	161.4407
85.000000	77.638	161.4460
86.199997	77.507	161.8874
87.500000	77.402	162.2692
88.500000	77.280	162.7504
90.000000	77.177	164.1581
91.199997	77.164	165.2017
92.500000	77.205	166.5170
93.800003	77.368	167.5521
95.000000	77.549	167.7706
96.199997	77.696	167.4926
97.500000	77.816	166.9079
98.800003	77.893	166.0401
100.000000	77.899	165.1465
101.500000	77.853	164.3819
103.000000	77.817	163.7676
104.400002	77.752	163.1277
106.000000	77.648	162.7731
107.500000	77.590	162.5742
109.000000	77.524	162.2148
110.599998	77.428	162.0468
112.000000	77.368	162.0632
113.800003	77.308	161.9229
115.000000	77.253	161.8028
117.199997	77.153	161.7448
118.000000	77.124	161.7358
120.599998	77.037	161.6968
122.000000	76.997	161.6602
124.099998	76.927	161.5547
125.000000	76.890	161.5361
126.500000	76.830	161.5761
128.000000	76.784	161.6501
131.500000	76.694	161.5868
132.000000	76.678	161.5614
134.000000	76.604	161.5091
136.000000	76.528	161.5566
138.000000	76.461	161.6595
140.000000	76.403	161.7691
143.000000	76.323	161.9029
145.000000	76.271	161.9767
147.500000	76.204	162.0666
150.000000	76.137	162.1570
152.500000	76.071	162.2475
155.000000	76.004	162.3548
157.500000	75.942	162.4820
160.000000	75.885	162.6203
162.500000	75.832	162.7704
165.000000	75.781	162.9415
167.500000	75.730	163.1439
170.000000	75.675	163.3705
172.500000	75.615	163.5779
175.000000	75.555	163.7294
177.500000	75.502	163.8453
180.000000	75.454	163.9904
182.500000	75.410	164.1856
185.000000	75.364	164.3911
187.500000	75.317	164.5953
190.000000	75.271	164.8084
192.500000	75.225	165.0235
195.000000	75.181	165.2287
197.500000	75.138	165.4384
200.000000	75.097	165.6693
203.000000	75.047	165.9587
206.000000	75.003	166.2581
209.000000	74.966	166.6035
212.000000	74.937	166.9818
214.000000	74.924	167.2167
218.000000	74.912	167.5817
220.000000	74.908	167.7046
224.000000	74.889	167.8565
227.000000	74.864	167.9441
230.000000	74.833	168.0496
233.000000	74.799	168.1788
236.000000	74.765	168.3279
240.000000	74.719	168.5548
243.000000	74.685	168.7386
247.000000	74.642	168.9927
250.000000	74.610	169.1893
254.000000	74.569	169.4556
258.000000	74.530	169.7258
262.000000	74.492	170.0007
265.000000	74.465	170.2055
269.000000	74.430	170.4778
272.000000	74.405	170.6846
276.000000	74.373	170.9630
280.000000	74.342	171.2394
285.000000	74.305	171.5831
290.000000	74.269	171.9223
295.000000	74.235	172.2690
300.000000	74.203	172.6234
304.000000	74.177	172.8831
307.000000	74.158	173.0735
311.000000	74.134	173.3345
315.000000	74.111	173.6019
320.000000	74.082	173.9376
325.000000	74.054	174.2686
330.000000	74.027	174.5973
335.000000	74.002	174.9259
340.000000	73.977	175.2538
345.000000	73.954	175.5762
350.000000	73.931	175.8962
355.000000	73.910	176.2147
360.000000	73.889	176.5310
365.000000	73.870	176.8483
370.000000	73.851	177.1628
375.000000	73.833	177.4747
382.000000	73.808	177.9103
387.000000	73.792	178.2192
395.000000	73.766	178.7137
400.000000	73.750	179.0227
406.000000	73.732	179.3875
412.000000	73.714	179.7485
418.000000	73.696	-179.8835
425.000000	73.678	-179.4572
431.000000	73.664	-179.0994
437.000000	73.649	-178.7413
444.000000	73.633	-178.3231
450.000000	73.620	-177.9661
455.000000	73.610	-177.6712
462.000000	73.598	-177.2606
468.000000	73.588	-176.9096
475.000000	73.577	-176.5034
482.000000	73.566	-176.0980
487.000000	73.559	-175.8061
494.000000	73.549	-175.3981
500.000000	73.541	-175.0513
508.000000	73.531	-174.5873
515.000000	73.522	-174.1782
522.000000	73.514	-173.7719
530.000000	73.507	-173.3112
538.000000	73.500	-172.8489
545.000000	73.494	-172.4449
552.000000	73.488	-172.0401
560.000000	73.483	-171.5766
570.000000	73.479	-171.0023
580.000000	73.477	-170.4297
590.000000	73.476	-169.8568
600.000000	73.477	-169.2815
608.000000	73.478	-168.8187
615.000000	73.480	-168.4135
622.000000	73.482	-168.0083
630.000000	73.486	-167.5453
640.000000	73.492	-166.9629
650.000000	73.499	-166.3783
660.000000	73.508	-165.7938
670.000000	73.517	-165.2083
680.000000	73.527	-164.6216
690.000000	73.540	-164.0344
700.000000	73.554	-163.4445
710.000000	73.571	-162.8530
720.000000	73.589	-162.2608
730.000000	73.610	-161.6678
740.000000	73.632	-161.0742
750.000000	73.657	-160.4824
762.000000	73.690	-159.7725
775.000000	73.729	-159.0039
788.000000	73.772	-158.2394
800.000000	73.814	-157.5388
812.000000	73.859	-156.8406
825.000000	73.912	-156.0901
838.000000	73.969	-155.3493
850.000000	74.024	-154.6746
862.000000	74.084	-154.0085
875.000000	74.152	-153.3004
885.000000	74.208	-152.7675
900.000000	74.296	-151.9908
912.000000	74.370	-151.3908
925.000000	74.455	-150.7636
938.000000	74.543	-150.1619
950.000000	74.627	-149.6299
962.000000	74.714	-149.1207
975.000000	74.810	-148.5973
988.000000	74.908	-148.1053
1000.000000	75.000	-147.6804
1015.000000	75.118	-147.1921
1030.000000	75.237	-146.7553
1044.000000	75.350	-146.3986
1060.000000	75.480	-146.0595
1075.000000	75.601	-145.8311
1090.000000	75.718	-145.7254
1106.000000	75.820	-145.7646
1120.000000	75.870	-145.8262
1138.000000	75.890	-145.5563
1150.000000	75.918	-145.0767
1172.000000	76.054	-144.1205
1180.000000	76.119	-143.8632
1206.000000	76.331	-143.3514
1220.000000	76.436	-143.1910
1241.000000	76.580	-143.0075
1250.000000	76.638	-142.9401
1265.000000	76.732	-142.8367
1280.000000	76.821	-142.7409
1315.000000	77.019	-142.5345
1320.000000	77.046	-142.5065
1340.000000	77.153	-142.3972
1360.000000	77.256	-142.2899
1380.000000	77.357	-142.1839
1400.000000	77.456	-142.0788
1430.000000	77.602	-141.9221
1450.000000	77.698	-141.8189
1475.000000	77.817	-141.6909
1500.000000	77.935	-141.5628
1525.000000	78.053	-141.4393
1550.000000	78.171	-141.3215
1575.000000	78.289	-141.2084
1600.000000	78.407	-141.1016
1625.000000	78.525	-141.0038
1650.000000	78.643	-140.9176
1675.000000	78.761	-140.8457
1700.000000	78.880	-140.7880
1725.000000	78.999	-140.7445
1750.000000	79.117	-140.7149
1775.000000	79.236	-140.6982
1800.000000	79.354	-140.6944
1825.000000	79.473	-140.7038
1850.000000	79.591	-140.7249
1875.000000	79.710	-140.7573
1900.000000	79.828	-140.8004
1925.000000	79.948	-140.8544
1950.000000	80.069	-140.9224
1975.000000	80.191	-141.0050
2000.000000	80.317	-141.1161
2030.000000	80.470	-141.3050
2060.000000	80.619	-141.5276
2090.000000	80.763	-141.7629
2120.000000	80.902	-142.0269
2140.000000	80.994	-142.2187
2180.000000	81.175	-142.6337
2200.000000	81.264	-142.8567
2240.000000	81.438	-143.3335
2270.000000	81.567	-143.7168
2300.000000	81.692	-144.1221
2330.000000	81.815	-144.5497
2360.000000	81.936	-144.9983
2400.000000	82.092	-145.6270
2430.000000	82.206	-146.1204
2470.000000	82.352	-146.8064
2500.000000	82.458	-147.3399
2540.000000	82.594	-148.0732
2580.000000	82.724	-148.8301
2620.000000	82.847	-149.6072
2650.000000	82.936	-150.2014
2690.000000	83.049	-151.0064
2720.000000	83.129	-151.6157
2760.000000	83.231	-152.4323
2800.000000	83.328	-153.2587
2850.000000	83.440	-154.3004
2900.000000	83.544	-155.3447
2950.000000	83.641	-156.3904
3000.000000	83.731	-157.4339
3040.000000	83.798	-158.2657
3070.000000	83.847	-158.8881
3110.000000	83.908	-159.7164
3150.000000	83.967	-160.5421
3200.000000	84.036	-161.5731
3250.000000	84.101	-162.6037
3300.000000	84.161	-163.6322
3350.000000	84.218	-164.6589
3400.000000	84.271	-165.6819
3450.000000	84.322	-166.6990
3500.000000	84.372	-167.7110
3550.000000	84.424	-168.7263
3600.000000	84.477	-169.7586
3650.000000	84.530	-170.8223
3700.000000	84.583	-171.9254
3750.000000	84.636	-173.0730
3820.000000	84.707	-174.7774
3870.000000	84.754	-176.0858
3950.000000	84.811	-178.3519
4000.000000	84.830	-179.8606
4060.000000	84.833	178.2634
4120.000000	84.813	176.3445
4180.000000	84.770	174.4083
4250.000000	84.694	172.1487
4310.000000	84.608	170.2121
4370.000000	84.502	168.2662
4440.000000	84.350	165.9850
4500.000000	84.189	164.0447
4550.000000	84.034	162.4666
4620.000000	83.782	160.3624
4680.000000	83.538	158.6950
4750.000000	83.226	156.9461
4820.000000	82.891	155.4319
4870.000000	82.643	154.4974
4940.000000	82.288	153.3817
5000.000000	81.978	152.5857
5080.000000	81.559	151.7389
5150.000000	81.183	151.2127
5220.000000	80.800	150.9232
5300.000000	80.361	150.9304
5380.000000	79.936	151.3139
5450.000000	79.586	151.9286
5520.000000	79.265	152.7410
5600.000000	78.942	153.8176
5700.000000	78.601	155.2755
5800.000000	78.315	156.7448
5900.000000	78.069	158.1368
6000.000000	77.841	159.4440
6080.000000	77.660	160.4899
6150.000000	77.502	161.4612
6220.000000	77.347	162.5201
6300.000000	77.183	163.8587
6400.000000	77.007	165.7109
6500.000000	76.873	167.6855
6600.000000	76.781	169.7351
6700.000000	76.732	171.8713
6800.000000	76.737	174.0629
6900.000000	76.800	176.2582
7000.000000	76.925	178.4309
7100.000000	77.125	-179.4576
7200.000000	77.414	-177.5081
7300.000000	77.800	-175.8821
7400.000000	78.288	-174.7738
7500.000000	78.871	-174.4491
7620.000000	79.660	-175.5062
7750.000000	80.533	-178.9886
7880.000000	81.246	174.7064
8000.000000	81.575	166.6779
8120.000000	81.464	157.6207
8250.000000	80.826	148.4808
8380.000000	79.776	141.5800
8500.000000	78.611	137.6162
8620.000000	77.396	135.7224
8750.000000	76.123	135.5382
8850.000000	75.214	136.4258
9000.000000	73.997	138.9216
9120.000000	73.149	141.5702
9250.000000	72.340	144.8399
9380.000000	71.621	148.3861
9500.000000	71.018	151.8829
9620.000000	70.467	155.6192
9750.000000	69.931	159.9380
9880.000000	69.461	164.4915
10000.000000	69.086	168.8600
10150.000000	68.694	174.5142
10300.000000	68.386	-179.6275
10440.000000	68.173	-173.9691
10600.000000	68.022	-167.2536
10750.000000	67.976	-160.6685
10900.000000	68.039	-153.7247
11060.000000	68.262	-145.8180
11200.000000	68.648	-138.4108
11380.000000	69.559	-128.3577
11500.000000	70.536	-121.7247
11720.000000	73.205	-112.0170
11800.000000	74.388	-110.1010
12060.000000	78.329	-112.8571
12200.000000	80.193	-120.3938
12410.000000	82.209	-139.0947
12500.000000	82.664	-149.3165
12650.000000	82.745	-167.3998
12800.000000	81.989	176.3213
13150.000000	78.309	156.1275
13200.000000	77.731	155.1015
13400.000000	75.590	153.8786
13600.000000	73.829	155.6371
13800.000000	72.450	159.0155
14000.000000	71.397	163.2890
14300.000000	70.330	170.5087
14500.000000	69.925	175.4222
14750.000000	69.731	-178.7891
15000.000000	69.865	-173.9143
15250.000000	70.297	-170.7113
15500.000000	70.937	-170.2033
15750.000000	71.565	-173.4810
16000.000000	71.827	179.2840
16250.000000	71.413	170.0522
16500.000000	70.274	162.1993
16750.000000	68.634	157.9609
17000.000000	66.809	157.5422
17250.000000	65.038	160.2199
17500.000000	63.479	165.1060
17750.000000	62.212	171.2877
18000.000000	61.244	178.0727
18250.000000	60.559	-175.0679
18500.000000	60.119	-168.4928
18750.000000	59.902	-162.3125
19000.000000	59.919	-156.9434
19250.000000	60.068	-153.0262
19500.000000	60.228	-150.5306
19750.000000	60.363	-149.5635
