* Measurement data measured by REW V5.20.13
* Source: EXCL: Headset (KM-HIFI-384KHZ), MICROPHONE (Master Volume), 0, volume: 1.000
* Format: 256k Log Swept Sine, 1 sweep at -20.0 dBFS with no timing reference
* Dated: Nov 11, 2023 10:21:54 PM
* REW Settings:
*  C-weighting compensation: Off
*  Target level: 75.0 dB
* Note: 
* Measurement: Humble Luna L
* Smoothing: 1/24 octave
* Frequency Step: 1/48 octave
* Start Frequency: 20.000 Hz
*
* Freq(Hz)	SPL(dB)	Phase(degrees)
20.000000	109.892	-143.9323
20.299999	109.921	-144.6381
20.600000	109.950	-145.3308
20.900000	109.978	-146.0132
21.200001	110.004	-146.6872
21.400000	110.021	-147.1313
21.799999	110.052	-148.0044
22.000000	110.066	-148.4320
22.400000	110.093	-149.2670
22.700001	110.113	-149.8760
23.000000	110.131	-150.4729
23.299999	110.149	-151.0610
23.600000	110.167	-151.6421
24.000000	110.188	-152.4062
24.299999	110.202	-152.9684
24.700001	110.218	-153.6983
25.000000	110.229	-154.2285
25.400000	110.242	-154.9130
25.799999	110.256	-155.5775
26.200001	110.270	-156.2292
26.500000	110.279	-156.7118
26.900000	110.291	-157.3474
27.200001	110.299	-157.8166
27.600000	110.309	-158.4305
28.000000	110.317	-159.0308
28.500000	110.327	-159.7650
29.000000	110.335	-160.4851
29.500000	110.341	-161.1908
30.000000	110.346	-161.8785
30.400000	110.348	-162.4144
30.700001	110.350	-162.8085
31.100000	110.351	-163.3248
31.500000	110.352	-163.8317
32.000000	110.352	-164.4522
32.500000	110.351	-165.0573
33.000000	110.350	-165.6475
33.500000	110.348	-166.2252
34.000000	110.345	-166.7921
34.500000	110.341	-167.3475
35.000000	110.336	-167.8908
35.500000	110.331	-168.4223
36.000000	110.324	-168.9420
36.500000	110.317	-169.4492
37.000000	110.309	-169.9448
37.500000	110.300	-170.4321
38.200001	110.287	-171.1015
38.700001	110.276	-171.5634
39.500000	110.258	-172.2664
40.000000	110.249	-172.6962
40.599998	110.239	-173.2187
41.200001	110.226	-173.7440
41.799999	110.210	-174.2539
42.500000	110.191	-174.8204
43.099998	110.175	-175.2921
43.700001	110.160	-175.7580
44.400002	110.140	-176.2903
45.000000	110.123	-176.7328
45.500000	110.108	-177.0931
46.200001	110.087	-177.5870
46.799999	110.068	-177.9996
47.500000	110.047	-178.4690
48.200001	110.025	-178.9310
48.700001	110.008	-179.2560
49.400002	109.984	-179.6975
50.000000	109.963	179.9374
50.799999	109.936	179.4603
51.500000	109.912	179.0493
52.200001	109.888	178.6474
53.000000	109.860	178.1982
53.799999	109.831	177.7624
54.500000	109.805	177.3927
55.200001	109.780	177.0308
56.000000	109.751	176.6267
57.000000	109.714	176.1298
58.000000	109.676	175.6460
59.000000	109.638	175.1814
60.000000	109.599	174.7297
60.799999	109.569	174.3884
61.500000	109.543	174.0889
62.200001	109.516	173.7895
63.000000	109.485	173.4691
64.000000	109.448	173.0742
65.000000	109.408	172.6830
66.000000	109.369	172.3241
67.000000	109.331	171.9519
68.000000	109.290	171.6068
69.000000	109.253	171.2728
70.000000	109.214	170.9276
71.000000	109.174	170.6146
72.000000	109.137	170.3026
73.000000	109.098	169.9971
74.000000	109.060	169.7090
75.000000	109.021	169.4147
76.199997	108.973	169.0891
77.500000	108.925	168.7496
78.800003	108.874	168.4030
80.000000	108.827	168.1205
81.199997	108.783	167.8339
82.500000	108.734	167.5263
83.800003	108.687	167.2327
85.000000	108.642	166.9567
86.199997	108.596	166.7089
87.500000	108.549	166.4491
88.500000	108.512	166.2474
90.000000	108.455	165.9681
91.199997	108.411	165.7606
92.500000	108.363	165.5455
93.800003	108.317	165.3417
95.000000	108.275	165.1451
96.199997	108.231	164.9496
97.500000	108.183	164.7686
98.800003	108.140	164.5930
100.000000	108.098	164.4218
101.500000	108.045	164.2435
103.000000	108.000	164.0737
104.400002	107.957	163.8696
106.000000	107.899	163.6577
107.500000	107.847	163.5157
109.000000	107.801	163.3705
110.599998	107.751	163.2026
112.000000	107.708	163.0572
113.800003	107.651	162.8645
115.000000	107.611	162.7469
117.199997	107.538	162.5990
118.000000	107.516	162.5557
120.599998	107.449	162.3389
122.000000	107.407	162.1776
124.099998	107.330	161.9807
125.000000	107.294	161.9423
126.500000	107.241	161.9361
128.000000	107.199	161.9559
131.500000	107.134	161.8282
132.000000	107.125	161.7808
134.000000	107.079	161.5475
136.000000	107.017	161.3123
138.000000	106.945	161.1368
140.000000	106.871	161.0424
143.000000	106.771	161.0160
145.000000	106.711	161.0235
147.500000	106.640	161.0318
150.000000	106.573	161.0408
152.500000	106.509	161.0441
155.000000	106.449	161.0386
157.500000	106.398	161.0541
160.000000	106.355	161.1362
162.500000	106.315	161.2925
165.000000	106.278	161.5243
167.500000	106.240	161.8489
170.000000	106.188	162.2104
172.500000	106.127	162.3934
175.000000	106.094	162.3072
177.500000	106.114	162.1799
180.000000	106.144	162.2467
182.500000	106.140	162.3507
185.000000	106.106	162.2175
187.500000	106.080	161.9116
190.000000	106.062	161.6815
192.500000	106.029	161.5725
195.000000	105.981	161.4533
197.500000	105.936	161.3139
200.000000	105.897	161.2329
203.000000	105.848	161.1861
206.000000	105.798	161.1190
209.000000	105.753	161.0618
212.000000	105.707	161.0155
214.000000	105.676	160.9724
218.000000	105.612	160.8854
220.000000	105.580	160.8565
224.000000	105.516	160.8147
227.000000	105.467	160.7936
230.000000	105.419	160.7843
233.000000	105.372	160.7818
236.000000	105.324	160.7867
240.000000	105.262	160.8072
243.000000	105.217	160.8342
247.000000	105.158	160.8838
250.000000	105.116	160.9287
254.000000	105.061	160.9981
258.000000	105.010	161.0714
262.000000	104.962	161.1401
265.000000	104.928	161.1857
269.000000	104.883	161.2377
272.000000	104.850	161.2700
276.000000	104.805	161.3057
280.000000	104.759	161.3367
285.000000	104.702	161.3780
290.000000	104.643	161.4293
295.000000	104.585	161.4873
300.000000	104.527	161.5533
304.000000	104.482	161.6116
307.000000	104.448	161.6573
311.000000	104.404	161.7209
315.000000	104.360	161.7880
320.000000	104.306	161.8771
325.000000	104.252	161.9697
330.000000	104.200	162.0637
335.000000	104.149	162.1609
340.000000	104.099	162.2609
345.000000	104.049	162.3635
350.000000	103.999	162.4671
355.000000	103.950	162.5716
360.000000	103.902	162.6796
365.000000	103.853	162.7918
370.000000	103.805	162.9074
375.000000	103.759	163.0269
382.000000	103.694	163.1985
387.000000	103.648	163.3232
395.000000	103.577	163.5251
400.000000	103.533	163.6561
406.000000	103.481	163.8150
412.000000	103.429	163.9728
418.000000	103.377	164.1357
425.000000	103.318	164.3307
431.000000	103.268	164.5002
437.000000	103.218	164.6689
444.000000	103.161	164.8678
450.000000	103.111	165.0502
455.000000	103.071	165.2059
462.000000	103.017	165.4197
468.000000	102.970	165.6058
475.000000	102.916	165.8336
482.000000	102.862	166.0658
487.000000	102.824	166.2349
494.000000	102.772	166.4781
500.000000	102.727	166.6906
508.000000	102.669	166.9767
515.000000	102.619	167.2304
522.000000	102.570	167.4893
530.000000	102.514	167.7892
538.000000	102.460	168.0926
545.000000	102.413	168.3643
552.000000	102.367	168.6417
560.000000	102.315	168.9643
570.000000	102.251	169.3760
580.000000	102.189	169.7965
590.000000	102.128	170.2267
600.000000	102.069	170.6706
608.000000	102.021	171.0322
615.000000	101.982	171.3472
622.000000	101.944	171.6641
630.000000	101.901	172.0340
640.000000	101.849	172.5070
650.000000	101.798	172.9892
660.000000	101.749	173.4789
670.000000	101.702	173.9766
680.000000	101.657	174.4827
690.000000	101.614	174.9967
700.000000	101.572	175.5171
710.000000	101.533	176.0419
720.000000	101.496	176.5738
730.000000	101.461	177.1128
740.000000	101.427	177.6585
750.000000	101.396	178.2102
762.000000	101.361	178.8801
775.000000	101.326	179.6170
788.000000	101.295	-179.6347
800.000000	101.269	-178.9348
812.000000	101.247	-178.2257
825.000000	101.228	-177.4478
838.000000	101.214	-176.6613
850.000000	101.205	-175.9294
862.000000	101.201	-175.1956
875.000000	101.202	-174.4039
885.000000	101.207	-173.7990
900.000000	101.219	-172.8994
912.000000	101.234	-172.1886
925.000000	101.255	-171.4307
938.000000	101.280	-170.6865
950.000000	101.308	-170.0137
962.000000	101.339	-169.3569
975.000000	101.376	-168.6657
988.000000	101.417	-167.9979
1000.000000	101.458	-167.4032
1015.000000	101.512	-166.6892
1030.000000	101.570	-166.0098
1044.000000	101.626	-165.4083
1060.000000	101.692	-164.7595
1075.000000	101.755	-164.1870
1090.000000	101.819	-163.6469
1106.000000	101.887	-163.1050
1120.000000	101.946	-162.6581
1138.000000	102.020	-162.1175
1150.000000	102.070	-161.7759
1172.000000	102.157	-161.1845
1180.000000	102.189	-160.9793
1206.000000	102.287	-160.3405
1220.000000	102.338	-160.0118
1241.000000	102.412	-159.5354
1250.000000	102.443	-159.3361
1265.000000	102.494	-159.0085
1280.000000	102.544	-158.6845
1315.000000	102.655	-157.9391
1320.000000	102.670	-157.8331
1340.000000	102.732	-157.4087
1360.000000	102.792	-156.9834
1380.000000	102.852	-156.5567
1400.000000	102.912	-156.1272
1430.000000	103.002	-155.4766
1450.000000	103.063	-155.0387
1475.000000	103.140	-154.4874
1500.000000	103.218	-153.9327
1525.000000	103.299	-153.3759
1550.000000	103.383	-152.8180
1575.000000	103.469	-152.2608
1600.000000	103.558	-151.7054
1625.000000	103.650	-151.1523
1650.000000	103.745	-150.6050
1675.000000	103.844	-150.0659
1700.000000	103.946	-149.5356
1725.000000	104.052	-149.0155
1750.000000	104.161	-148.5096
1775.000000	104.274	-148.0186
1800.000000	104.391	-147.5439
1825.000000	104.511	-147.0882
1850.000000	104.634	-146.6533
1875.000000	104.760	-146.2395
1900.000000	104.890	-145.8488
1925.000000	105.023	-145.4836
1950.000000	105.158	-145.1449
1975.000000	105.296	-144.8336
2000.000000	105.436	-144.5517
2030.000000	105.607	-144.2550
2060.000000	105.781	-144.0048
2090.000000	105.957	-143.8030
2120.000000	106.134	-143.6514
2140.000000	106.253	-143.5790
2180.000000	106.491	-143.5045
2200.000000	106.609	-143.5021
2240.000000	106.844	-143.5652
2270.000000	107.016	-143.6693
2300.000000	107.185	-143.8152
2330.000000	107.349	-143.9930
2360.000000	107.508	-144.1894
2400.000000	107.713	-144.4449
2430.000000	107.865	-144.6023
2470.000000	108.079	-144.7481
2500.000000	108.258	-144.8427
2540.000000	108.533	-145.0941
2580.000000	108.833	-145.6857
2620.000000	109.123	-146.6972
2650.000000	109.315	-147.6702
2690.000000	109.531	-149.1194
2720.000000	109.665	-150.2490
2760.000000	109.812	-151.7530
2800.000000	109.931	-153.2238
2850.000000	110.047	-154.9967
2900.000000	110.134	-156.6883
2950.000000	110.197	-158.2892
3000.000000	110.240	-159.7903
3040.000000	110.263	-160.9150
3070.000000	110.276	-161.7141
3110.000000	110.288	-162.7224
3150.000000	110.295	-163.6696
3200.000000	110.301	-164.7772
3250.000000	110.305	-165.8084
3300.000000	110.308	-166.7689
3350.000000	110.313	-167.6637
3400.000000	110.321	-168.5004
3450.000000	110.335	-169.2911
3500.000000	110.356	-170.0526
3550.000000	110.386	-170.8056
3600.000000	110.425	-171.5727
3650.000000	110.471	-172.3739
3700.000000	110.521	-173.2229
3750.000000	110.573	-174.1215
3820.000000	110.643	-175.4348
3870.000000	110.694	-176.3762
3950.000000	110.792	-177.8582
4000.000000	110.877	-178.8297
4060.000000	111.006	179.8270
4120.000000	111.154	178.1681
4180.000000	111.302	176.1190
4250.000000	111.449	173.2106
4310.000000	111.533	170.2972
4370.000000	111.561	167.0525
4440.000000	111.502	162.9701
4500.000000	111.362	159.3607
4550.000000	111.181	156.3877
4620.000000	110.837	152.4388
4680.000000	110.470	149.3553
4750.000000	109.977	146.1721
4820.000000	109.431	143.4550
4870.000000	109.015	141.8061
4940.000000	108.404	139.9182
5000.000000	107.861	138.7050
5080.000000	107.125	137.6999
5150.000000	106.491	137.3949
5220.000000	105.888	137.5234
5300.000000	105.245	138.0007
5380.000000	104.636	138.7414
5450.000000	104.126	139.6195
5520.000000	103.640	140.7112
5600.000000	103.118	142.1888
5700.000000	102.517	144.3192
5800.000000	101.972	146.7068
5900.000000	101.479	149.3164
6000.000000	101.039	152.1267
6080.000000	100.726	154.5039
6150.000000	100.482	156.6647
6220.000000	100.265	158.8892
6300.000000	100.053	161.4938
6400.000000	99.839	164.8179
6500.000000	99.684	168.1938
6600.000000	99.586	171.5948
6700.000000	99.545	175.0052
6800.000000	99.568	178.3987
6900.000000	99.658	-178.2419
7000.000000	99.813	-174.9174
7100.000000	100.040	-171.6710
7200.000000	100.348	-168.5616
7300.000000	100.739	-165.6601
7400.000000	101.217	-163.0096
7500.000000	101.797	-160.6553
7620.000000	102.658	-158.4222
7750.000000	103.826	-157.2425
7880.000000	105.241	-158.2871
8000.000000	106.667	-162.4976
8120.000000	107.945	-171.1670
8250.000000	108.702	174.2668
8380.000000	108.440	157.6425
8500.000000	107.331	144.9731
8620.000000	105.724	137.0000
8750.000000	103.840	133.1024
8850.000000	102.468	132.4637
9000.000000	100.642	133.9246
9120.000000	99.384	136.4601
9250.000000	98.208	140.1019
9380.000000	97.203	144.3082
9500.000000	96.402	148.4754
9620.000000	95.701	152.8452
9750.000000	95.038	157.7733
9880.000000	94.464	162.8510
10000.000000	94.007	167.6317
10150.000000	93.525	173.7127
10300.000000	93.139	179.8932
10440.000000	92.867	-174.2819
10600.000000	92.663	-167.6129
10750.000000	92.575	-161.4187
10900.000000	92.583	-155.3373
11060.000000	92.694	-148.9990
11200.000000	92.883	-143.5759
11380.000000	93.269	-136.7864
11500.000000	93.633	-132.4144
11720.000000	94.576	-124.9313
11800.000000	95.024	-122.4650
12060.000000	96.986	-116.0778
12200.000000	98.438	-114.3869
12410.000000	101.105	-116.6539
12500.000000	102.285	-120.5655
12650.000000	103.915	-132.6170
12800.000000	104.664	-150.9211
13150.000000	102.224	171.5779
13200.000000	101.565	168.9772
13400.000000	98.874	164.4161
13600.000000	96.591	165.5893
13800.000000	94.879	169.4595
14000.000000	93.655	174.6442
14300.000000	92.536	-176.3786
14500.000000	92.190	-170.0429
14750.000000	92.166	-162.1995
15000.000000	92.579	-154.8752
15250.000000	93.466	-148.7206
15500.000000	94.855	-145.0646
15750.000000	96.581	-146.2847
16000.000000	98.067	-155.1904
16250.000000	98.517	-171.0072
16500.000000	97.587	173.4933
16750.000000	95.704	164.6998
17000.000000	93.657	162.3111
17250.000000	92.013	162.9421
17500.000000	90.957	163.3402
17750.000000	90.380	160.5966
18000.000000	89.898	152.4122
18250.000000	88.947	139.1175
18500.000000	87.144	124.9951
18750.000000	84.572	114.8216
19000.000000	81.690	109.9816
19250.000000	79.017	109.3456
19500.000000	76.853	111.4493
19750.000000	75.279	114.8501
