* Measurement data measured by REW V5.20.13
* Source: EXCL: Headset (KM-HIFI-384KHZ), MICROPHONE (Master Volume), 0, volume: 1.000
* Format: 256k Log Swept Sine, 1 sweep at -20.0 dBFS with no timing reference
* Dated: Nov 12, 2023 10:16:09 PM
* REW Settings:
*  C-weighting compensation: Off
*  Target level: 75.0 dB
* Note: ; 
* Measurement: Kinera Urd Show R
* Smoothing: 1/24 octave
* Frequency Step: 1/48 octave
* Start Frequency: 20.000 Hz
*
* Freq(Hz)	SPL(dB)	Phase(degrees)
20.000000	100.294	2.8405
20.299999	100.279	2.3932
20.600000	100.266	1.9511
20.900000	100.253	1.5066
21.200001	100.240	1.0552
21.400000	100.230	0.7518
21.799999	100.208	0.1451
22.000000	100.196	-0.1544
22.400000	100.169	-0.7395
22.700001	100.148	-1.1659
23.000000	100.126	-1.5853
23.299999	100.104	-2.0015
23.600000	100.081	-2.4140
24.000000	100.048	-2.9520
24.299999	100.021	-3.3378
24.700001	99.986	-3.8201
25.000000	99.961	-4.1605
25.400000	99.932	-4.6004
25.799999	99.906	-5.0444
26.200001	99.880	-5.4999
26.500000	99.858	-5.8408
26.900000	99.828	-6.2781
27.200001	99.805	-6.5850
27.600000	99.776	-6.9691
28.000000	99.750	-7.3430
28.500000	99.721	-7.8239
29.000000	99.690	-8.3181
29.500000	99.655	-8.7980
30.000000	99.620	-9.2528
30.400000	99.594	-9.6151
30.700001	99.574	-9.8966
31.100000	99.546	-10.2877
31.500000	99.513	-10.6840
32.000000	99.466	-11.1547
32.500000	99.414	-11.5751
33.000000	99.364	-11.9535
33.500000	99.317	-12.3124
34.000000	99.271	-12.6614
34.500000	99.225	-12.9931
35.000000	99.181	-13.3040
35.500000	99.141	-13.6066
36.000000	99.103	-13.9172
36.500000	99.065	-14.2377
37.000000	99.025	-14.5564
37.500000	98.986	-14.8667
38.200001	98.932	-15.3014
38.700001	98.891	-15.6188
39.500000	98.821	-16.1036
40.000000	98.777	-16.3780
40.599998	98.725	-16.6943
41.200001	98.674	-17.0095
41.799999	98.620	-17.3024
42.500000	98.560	-17.5952
43.099998	98.515	-17.8392
43.700001	98.473	-18.1117
44.400002	98.418	-18.4444
45.000000	98.369	-18.7061
45.500000	98.328	-18.9066
46.200001	98.272	-19.1818
46.799999	98.223	-19.4139
47.500000	98.165	-19.6652
48.200001	98.110	-19.9018
48.700001	98.071	-20.0731
49.400002	98.016	-20.3160
50.000000	97.968	-20.5151
50.799999	97.905	-20.7667
51.500000	97.851	-20.9865
52.200001	97.795	-21.2009
53.000000	97.731	-21.4192
53.799999	97.670	-21.6127
54.500000	97.620	-21.7784
55.200001	97.571	-21.9483
56.000000	97.514	-22.1458
57.000000	97.440	-22.3749
58.000000	97.368	-22.5728
59.000000	97.297	-22.7658
60.000000	97.225	-22.9474
60.799999	97.168	-23.0808
61.500000	97.118	-23.1963
62.200001	97.068	-23.3083
63.000000	97.010	-23.4240
64.000000	96.939	-23.5502
65.000000	96.870	-23.6691
66.000000	96.801	-23.7855
67.000000	96.732	-23.8865
68.000000	96.665	-23.9666
69.000000	96.599	-24.0393
70.000000	96.531	-24.0922
71.000000	96.464	-24.0992
72.000000	96.401	-24.0748
73.000000	96.341	-24.0448
74.000000	96.283	-24.0037
75.000000	96.228	-23.9436
76.199997	96.171	-23.8739
77.500000	96.116	-23.8574
78.800003	96.057	-23.8403
80.000000	96.009	-23.7681
81.199997	95.972	-23.7181
82.500000	95.931	-23.7134
83.800003	95.888	-23.7131
85.000000	95.851	-23.7179
86.199997	95.821	-23.7526
87.500000	95.791	-23.9105
88.500000	95.756	-24.0640
90.000000	95.695	-24.2178
91.199997	95.647	-24.3171
92.500000	95.591	-24.4246
93.800003	95.533	-24.5128
95.000000	95.480	-24.6015
96.199997	95.426	-24.7102
97.500000	95.364	-24.8082
98.800003	95.303	-24.8531
100.000000	95.251	-24.8611
101.500000	95.189	-24.8589
103.000000	95.126	-24.8543
104.400002	95.068	-24.8438
106.000000	95.002	-24.8482
107.500000	94.941	-24.8469
109.000000	94.881	-24.8290
110.599998	94.820	-24.7935
112.000000	94.766	-24.7517
113.800003	94.699	-24.6956
115.000000	94.654	-24.6610
117.199997	94.574	-24.5876
118.000000	94.545	-24.5522
120.599998	94.457	-24.4285
122.000000	94.409	-24.3666
124.099998	94.338	-24.2620
125.000000	94.309	-24.2157
126.500000	94.261	-24.1395
128.000000	94.213	-24.0584
131.500000	94.102	-23.8531
132.000000	94.086	-23.8220
134.000000	94.026	-23.7020
136.000000	93.968	-23.5832
138.000000	93.912	-23.4586
140.000000	93.854	-23.3268
143.000000	93.770	-23.1239
145.000000	93.716	-22.9921
147.500000	93.653	-22.8226
150.000000	93.589	-22.6400
152.500000	93.525	-22.4489
155.000000	93.462	-22.2749
157.500000	93.399	-22.0805
160.000000	93.338	-21.8850
162.500000	93.278	-21.6964
165.000000	93.220	-21.4957
167.500000	93.165	-21.2722
170.000000	93.111	-21.0294
172.500000	93.057	-20.7738
175.000000	93.002	-20.5171
177.500000	92.950	-20.2614
180.000000	92.902	-20.0009
182.500000	92.855	-19.7292
185.000000	92.809	-19.4390
187.500000	92.767	-19.1241
190.000000	92.732	-18.8105
192.500000	92.699	-18.5161
195.000000	92.665	-18.2056
197.500000	92.636	-17.8755
200.000000	92.615	-17.5444
203.000000	92.598	-17.1670
206.000000	92.588	-16.8384
209.000000	92.580	-16.5519
212.000000	92.578	-16.3070
214.000000	92.578	-16.1716
218.000000	92.573	-15.9518
220.000000	92.568	-15.8722
224.000000	92.551	-15.7908
227.000000	92.534	-15.7705
230.000000	92.513	-15.7394
233.000000	92.485	-15.6840
236.000000	92.451	-15.6161
240.000000	92.405	-15.5180
243.000000	92.370	-15.4207
247.000000	92.322	-15.2621
250.000000	92.286	-15.1360
254.000000	92.237	-14.9445
258.000000	92.191	-14.7328
262.000000	92.148	-14.5175
265.000000	92.117	-14.3495
269.000000	92.076	-14.1183
272.000000	92.047	-13.9377
276.000000	92.009	-13.6903
280.000000	91.972	-13.4418
285.000000	91.928	-13.1293
290.000000	91.886	-12.8216
295.000000	91.845	-12.5035
300.000000	91.806	-12.1807
304.000000	91.777	-11.9310
307.000000	91.756	-11.7459
311.000000	91.728	-11.4939
315.000000	91.700	-11.2340
320.000000	91.669	-10.9190
325.000000	91.641	-10.6244
330.000000	91.616	-10.3480
335.000000	91.591	-10.0952
340.000000	91.565	-9.8149
345.000000	91.542	-9.4833
350.000000	91.517	-9.1797
355.000000	91.491	-8.9283
360.000000	91.469	-8.6932
365.000000	91.448	-8.4433
370.000000	91.427	-8.1901
375.000000	91.407	-7.9305
382.000000	91.374	-7.5388
387.000000	91.349	-7.2747
395.000000	91.313	-6.8558
400.000000	91.293	-6.5930
406.000000	91.270	-6.2801
412.000000	91.248	-5.9694
418.000000	91.227	-5.6621
425.000000	91.204	-5.3080
431.000000	91.184	-4.9995
437.000000	91.165	-4.6887
444.000000	91.143	-4.3397
450.000000	91.123	-4.0504
455.000000	91.107	-3.8094
462.000000	91.086	-3.4628
468.000000	91.070	-3.1589
475.000000	91.052	-2.8159
482.000000	91.035	-2.4784
487.000000	91.023	-2.2333
494.000000	91.005	-1.8914
500.000000	90.991	-1.6038
508.000000	90.974	-1.2273
515.000000	90.960	-0.8958
522.000000	90.945	-0.5551
530.000000	90.926	-0.1775
538.000000	90.911	0.1915
545.000000	90.897	0.5182
552.000000	90.883	0.8486
560.000000	90.867	1.2257
570.000000	90.850	1.6873
580.000000	90.833	2.1554
590.000000	90.817	2.6296
600.000000	90.802	3.1036
608.000000	90.790	3.4775
615.000000	90.780	3.8047
622.000000	90.771	4.1334
630.000000	90.760	4.5112
640.000000	90.747	4.9847
650.000000	90.734	5.4605
660.000000	90.722	5.9402
670.000000	90.709	6.4278
680.000000	90.697	6.9260
690.000000	90.685	7.4386
700.000000	90.674	7.9614
710.000000	90.665	8.4974
720.000000	90.657	9.0571
730.000000	90.651	9.6443
740.000000	90.649	10.2534
750.000000	90.651	10.8809
762.000000	90.664	11.6569
775.000000	90.691	12.5093
788.000000	90.732	13.3390
800.000000	90.780	14.0582
812.000000	90.836	14.7130
825.000000	90.901	15.3405
838.000000	90.967	15.8898
850.000000	91.025	16.3473
862.000000	91.081	16.7720
875.000000	91.140	17.2008
885.000000	91.183	17.5112
900.000000	91.246	17.9569
912.000000	91.294	18.3021
925.000000	91.347	18.6621
938.000000	91.399	19.0086
950.000000	91.446	19.3153
962.000000	91.492	19.6067
975.000000	91.541	19.9033
988.000000	91.590	20.1857
1000.000000	91.633	20.4366
1015.000000	91.684	20.7347
1030.000000	91.734	21.0189
1044.000000	91.778	21.2762
1060.000000	91.827	21.5718
1075.000000	91.873	21.8533
1090.000000	91.918	22.1395
1106.000000	91.967	22.4536
1120.000000	92.012	22.7333
1138.000000	92.078	23.0795
1150.000000	92.126	23.2794
1172.000000	92.217	23.5302
1180.000000	92.248	23.5830
1206.000000	92.330	23.6776
1220.000000	92.363	23.7192
1241.000000	92.402	23.8022
1250.000000	92.416	23.8464
1265.000000	92.435	23.9325
1280.000000	92.450	24.0396
1315.000000	92.480	24.3874
1320.000000	92.483	24.4466
1340.000000	92.497	24.7039
1360.000000	92.511	24.9942
1380.000000	92.525	25.3165
1400.000000	92.540	25.6670
1430.000000	92.565	26.2371
1450.000000	92.585	26.6438
1475.000000	92.614	27.1781
1500.000000	92.646	27.7402
1525.000000	92.683	28.3246
1550.000000	92.724	28.9240
1575.000000	92.769	29.5388
1600.000000	92.819	30.1691
1625.000000	92.873	30.8138
1650.000000	92.930	31.4776
1675.000000	92.990	32.1724
1700.000000	93.053	32.9101
1725.000000	93.123	33.7074
1750.000000	93.202	34.5941
1775.000000	93.299	35.5848
1800.000000	93.428	36.6656
1825.000000	93.601	37.7617
1850.000000	93.823	38.7277
1875.000000	94.084	39.3952
1900.000000	94.356	39.6686
1925.000000	94.611	39.5881
1950.000000	94.833	39.2907
1975.000000	95.023	38.9238
2000.000000	95.192	38.5795
2030.000000	95.387	38.2144
2060.000000	95.586	37.8334
2090.000000	95.788	37.3430
2120.000000	95.982	36.6988
2140.000000	96.102	36.1920
2180.000000	96.308	35.0682
2200.000000	96.394	34.4937
2240.000000	96.540	33.4159
2270.000000	96.636	32.7093
2300.000000	96.734	32.0843
2330.000000	96.839	31.5004
2360.000000	96.957	30.8915
2400.000000	97.130	29.9136
2430.000000	97.258	28.9870
2470.000000	97.402	27.4926
2500.000000	97.478	26.2473
2540.000000	97.532	24.5596
2580.000000	97.539	22.9729
2620.000000	97.514	21.5625
2650.000000	97.484	20.6215
2690.000000	97.438	19.4890
2720.000000	97.399	18.7065
2760.000000	97.340	17.7372
2800.000000	97.274	16.8568
2850.000000	97.184	15.8801
2900.000000	97.086	15.0364
2950.000000	96.980	14.3525
3000.000000	96.871	13.8676
3040.000000	96.789	13.6270
3070.000000	96.734	13.5196
3110.000000	96.671	13.4491
3150.000000	96.620	13.4358
3200.000000	96.568	13.4784
3250.000000	96.528	13.5872
3300.000000	96.501	13.7773
3350.000000	96.489	14.0565
3400.000000	96.500	14.4089
3450.000000	96.537	14.7991
3500.000000	96.601	15.1841
3550.000000	96.691	15.5218
3600.000000	96.804	15.7816
3650.000000	96.938	15.9432
3700.000000	97.090	15.9929
3750.000000	97.257	15.9216
3820.000000	97.514	15.6077
3870.000000	97.715	15.2130
3950.000000	98.068	14.2179
4000.000000	98.309	13.3033
4060.000000	98.612	11.7975
4120.000000	98.916	9.7175
4180.000000	99.188	6.9645
4250.000000	99.412	2.9142
4310.000000	99.480	-1.1133
4370.000000	99.405	-5.3652
4440.000000	99.127	-10.1353
4500.000000	98.744	-13.6649
4550.000000	98.348	-16.0128
4620.000000	97.732	-18.2488
4680.000000	97.200	-19.2089
4750.000000	96.638	-19.4224
4820.000000	96.182	-19.0371
4870.000000	95.930	-18.6496
4940.000000	95.662	-18.2687
5000.000000	95.479	-18.2758
5080.000000	95.238	-18.8417
5150.000000	94.978	-19.7078
5220.000000	94.644	-20.6401
5300.000000	94.175	-21.4375
5380.000000	93.640	-21.6841
5450.000000	93.148	-21.3567
5520.000000	92.659	-20.5312
5600.000000	92.130	-19.0533
5700.000000	91.538	-16.5790
5800.000000	91.039	-13.6455
5900.000000	90.636	-10.4695
6000.000000	90.317	-7.2121
6080.000000	90.114	-4.6116
6150.000000	89.966	-2.3546
6220.000000	89.843	-0.1112
6300.000000	89.729	2.4547
6400.000000	89.631	5.6963
6500.000000	89.588	8.9760
6600.000000	89.607	12.2632
6700.000000	89.692	15.5254
6800.000000	89.848	18.7214
6900.000000	90.079	21.7984
7000.000000	90.387	24.6906
7100.000000	90.767	27.3077
7200.000000	91.193	29.6217
7300.000000	91.649	31.9884
7400.000000	92.278	35.1717
7500.000000	93.403	38.4358
7620.000000	95.081	37.7125
7750.000000	96.414	31.3777
7880.000000	97.330	23.4326
8000.000000	97.872	15.0472
8120.000000	98.045	6.1599
8250.000000	97.815	-2.6636
8380.000000	97.276	-9.4722
8500.000000	96.662	-13.6586
8620.000000	96.067	-16.0828
8750.000000	95.537	-17.2594
8850.000000	95.245	-17.5158
9000.000000	95.020	-17.4594
9120.000000	95.023	-17.5346
9250.000000	95.183	-18.2709
9380.000000	95.451	-20.2094
9500.000000	95.716	-23.4814
9620.000000	95.888	-28.3828
9750.000000	95.831	-35.2842
9880.000000	95.410	-42.8885
10000.000000	94.675	-49.3350
10150.000000	93.395	-55.2861
10300.000000	91.919	-58.5311
10440.000000	90.530	-59.6564
10600.000000	88.999	-59.4720
10750.000000	87.610	-58.1837
10900.000000	86.261	-55.8342
11060.000000	84.897	-52.1957
11200.000000	83.801	-48.2019
11380.000000	82.564	-42.3137
11500.000000	81.854	-38.1185
11720.000000	80.784	-30.1877
11800.000000	80.467	-27.2793
12060.000000	79.694	-17.9155
12200.000000	79.440	-12.9952
12410.000000	79.275	-5.8785
12500.000000	79.284	-2.9520
12650.000000	79.408	1.7230
12800.000000	79.668	6.0868
13150.000000	80.794	14.4535
13200.000000	81.010	15.3539
13400.000000	81.981	17.8756
13600.000000	83.034	18.1702
13800.000000	83.975	15.7171
14000.000000	84.564	10.7565
14300.000000	84.445	2.1132
14500.000000	83.733	-1.4249
14750.000000	82.443	-1.4126
15000.000000	81.064	3.2091
15250.000000	79.845	11.1538
15500.000000	78.893	21.1777
15750.000000	78.240	32.2953
16000.000000	77.894	43.6541
16250.000000	77.851	54.2746
16500.000000	78.048	62.7732
16750.000000	78.250	67.5844
17000.000000	78.032	68.5261
17250.000000	77.058	68.7162
17500.000000	75.464	72.0530
17750.000000	73.759	78.4139
18000.000000	72.223	85.3221
18250.000000	70.801	91.7053
18500.000000	69.500	97.2468
18750.000000	68.416	101.2365
19000.000000	67.615	103.3237
19250.000000	67.191	103.7853
19500.000000	67.179	102.5388
19750.000000	67.311	99.8733
