* Measurement data measured by REW V5.20.13
* Source: EXCL: Headset (KM-HIFI-384KHZ), MICROPHONE (Master Volume), 0, volume: 1.000
* Format: 256k Log Swept Sine, 1 sweep at -20.0 dBFS with no timing reference
* Dated: Nov 12, 2023 11:02:32 PM
* REW Settings:
*  C-weighting compensation: Off
*  Target level: 75.0 dB
* Note: ; 
* Measurement: Kinera Thing Show L
* Smoothing: 1/24 octave
* Frequency Step: 1/48 octave
* Start Frequency: 20.000 Hz
*
* Freq(Hz)	SPL(dB)	Phase(degrees)
20.000000	96.340	-122.3712
20.299999	96.420	-123.1306
20.600000	96.498	-123.8832
20.900000	96.574	-124.6277
21.200001	96.648	-125.3627
21.400000	96.697	-125.8475
21.799999	96.791	-126.8062
22.000000	96.837	-127.2810
22.400000	96.927	-128.2227
22.700001	96.991	-128.9216
23.000000	97.053	-129.6119
23.299999	97.113	-130.2906
23.600000	97.170	-130.9554
24.000000	97.244	-131.8192
24.299999	97.298	-132.4521
24.700001	97.368	-133.2814
25.000000	97.420	-133.8963
25.400000	97.487	-134.7096
25.799999	97.551	-135.5143
26.200001	97.611	-136.3059
26.500000	97.654	-136.8891
26.900000	97.710	-137.6524
27.200001	97.751	-138.2161
27.600000	97.804	-138.9591
28.000000	97.855	-139.6943
28.500000	97.915	-140.6004
29.000000	97.972	-141.4873
29.500000	98.027	-142.3551
30.000000	98.080	-143.2097
30.400000	98.120	-143.8862
30.700001	98.148	-144.3871
31.100000	98.184	-145.0402
31.500000	98.217	-145.6700
32.000000	98.258	-146.4215
32.500000	98.301	-147.1426
33.000000	98.345	-147.8509
33.500000	98.391	-148.5577
34.000000	98.435	-149.2649
34.500000	98.479	-149.9705
35.000000	98.522	-150.6762
35.500000	98.564	-151.3863
36.000000	98.604	-152.1027
36.500000	98.640	-152.8221
37.000000	98.672	-153.5374
37.500000	98.701	-154.2413
38.200001	98.737	-155.1965
38.700001	98.761	-155.8561
39.500000	98.799	-156.8879
40.000000	98.822	-157.5265
40.599998	98.846	-158.2838
41.200001	98.868	-159.0208
41.799999	98.888	-159.7334
42.500000	98.911	-160.5412
43.099998	98.930	-161.2177
43.700001	98.949	-161.8787
44.400002	98.972	-162.6344
45.000000	98.992	-163.2796
45.500000	99.008	-163.8202
46.200001	99.029	-164.5779
46.799999	99.045	-165.2231
47.500000	99.063	-165.9737
48.200001	99.078	-166.7265
48.700001	99.086	-167.2612
49.400002	99.095	-167.9950
50.000000	99.101	-168.6078
50.799999	99.108	-169.4091
51.500000	99.113	-170.0989
52.200001	99.116	-170.7752
53.000000	99.118	-171.5321
53.799999	99.119	-172.2767
54.500000	99.119	-172.9199
55.200001	99.118	-173.5562
56.000000	99.114	-174.2733
57.000000	99.107	-175.1453
58.000000	99.098	-175.9887
59.000000	99.087	-176.8124
60.000000	99.075	-177.6107
60.799999	99.065	-178.2323
61.500000	99.057	-178.7705
62.200001	99.048	-179.3049
63.000000	99.037	-179.9069
64.000000	99.022	179.3549
65.000000	99.007	178.6272
66.000000	98.990	177.9091
67.000000	98.972	177.2030
68.000000	98.952	176.5096
69.000000	98.930	175.8304
70.000000	98.907	175.1674
71.000000	98.883	174.5179
72.000000	98.858	173.8756
73.000000	98.830	173.2489
74.000000	98.803	172.6435
75.000000	98.776	172.0487
76.199997	98.745	171.3483
77.500000	98.713	170.6047
78.800003	98.681	169.8611
80.000000	98.648	169.1889
81.199997	98.613	168.5341
82.500000	98.573	167.8380
83.800003	98.530	167.1541
85.000000	98.488	166.5356
86.199997	98.444	165.9328
87.500000	98.396	165.3080
88.500000	98.358	164.8470
90.000000	98.300	164.1954
91.199997	98.254	163.7154
92.500000	98.207	163.2161
93.800003	98.163	162.7260
95.000000	98.124	162.2713
96.199997	98.084	161.8152
97.500000	98.041	161.3285
98.800003	97.994	160.8522
100.000000	97.948	160.4561
101.500000	97.891	160.0165
103.000000	97.838	159.6393
104.400002	97.798	159.3242
106.000000	97.765	158.9885
107.500000	97.751	158.6337
109.000000	97.745	158.1950
110.599998	97.737	157.6262
112.000000	97.724	157.0777
113.800003	97.697	156.3218
115.000000	97.672	155.8129
117.199997	97.614	154.9083
118.000000	97.591	154.5945
120.599998	97.510	153.6269
122.000000	97.463	153.1307
124.099998	97.394	152.4252
125.000000	97.365	152.1267
126.500000	97.316	151.6413
128.000000	97.268	151.1696
131.500000	97.154	150.0946
132.000000	97.137	149.9443
134.000000	97.072	149.3385
136.000000	97.006	148.7392
138.000000	96.939	148.1390
140.000000	96.869	147.5273
143.000000	96.756	146.6170
145.000000	96.672	146.0272
147.500000	96.557	145.3712
150.000000	96.440	144.8239
152.500000	96.327	144.3710
155.000000	96.223	143.9834
157.500000	96.131	143.6089
160.000000	96.044	143.2228
162.500000	95.961	142.8322
165.000000	95.880	142.4319
167.500000	95.799	142.0223
170.000000	95.716	141.6154
172.500000	95.632	141.2184
175.000000	95.546	140.8302
177.500000	95.461	140.4504
180.000000	95.374	140.0849
182.500000	95.286	139.7411
185.000000	95.197	139.4162
187.500000	95.109	139.1048
190.000000	95.019	138.8083
192.500000	94.928	138.5317
195.000000	94.835	138.2778
197.500000	94.739	138.0499
200.000000	94.641	137.8538
203.000000	94.520	137.6735
206.000000	94.395	137.5709
209.000000	94.267	137.5765
212.000000	94.138	137.7329
214.000000	94.055	137.9460
218.000000	93.914	138.6956
220.000000	93.872	139.2343
224.000000	93.888	140.4629
227.000000	94.004	141.1617
230.000000	94.178	141.2751
233.000000	94.346	140.6773
236.000000	94.456	139.5570
240.000000	94.486	137.8056
243.000000	94.442	136.5971
247.000000	94.335	135.2709
250.000000	94.238	134.4730
254.000000	94.103	133.6076
258.000000	93.969	132.9081
262.000000	93.839	132.3243
265.000000	93.745	131.9402
269.000000	93.623	131.4798
272.000000	93.534	131.1659
276.000000	93.419	130.7825
280.000000	93.307	130.4326
285.000000	93.172	130.0250
290.000000	93.040	129.6400
295.000000	92.911	129.2830
300.000000	92.784	128.9489
304.000000	92.684	128.6944
307.000000	92.610	128.5124
311.000000	92.510	128.2792
315.000000	92.412	128.0540
320.000000	92.289	127.7886
325.000000	92.167	127.5458
330.000000	92.044	127.3296
335.000000	91.921	127.1430
340.000000	91.799	126.9918
345.000000	91.680	126.8755
350.000000	91.566	126.7835
355.000000	91.456	126.7059
360.000000	91.349	126.6321
365.000000	91.245	126.5516
370.000000	91.142	126.4645
375.000000	91.038	126.3753
382.000000	90.891	126.2562
387.000000	90.784	126.1769
395.000000	90.609	126.0731
400.000000	90.495	126.0331
406.000000	90.354	126.0162
412.000000	90.207	126.0483
418.000000	90.057	126.1517
425.000000	89.876	126.3942
431.000000	89.722	126.7313
437.000000	89.575	127.2029
444.000000	89.422	127.9078
450.000000	89.315	128.6003
455.000000	89.246	129.1952
462.000000	89.178	129.9822
468.000000	89.140	130.5652
475.000000	89.106	131.1098
482.000000	89.074	131.5217
487.000000	89.049	131.7563
494.000000	89.007	132.0358
500.000000	88.965	132.2543
508.000000	88.901	132.5415
515.000000	88.840	132.8099
522.000000	88.774	133.1060
530.000000	88.696	133.4887
538.000000	88.619	133.9233
545.000000	88.552	134.3447
552.000000	88.487	134.8044
560.000000	88.418	135.3763
570.000000	88.338	136.1586
580.000000	88.271	137.0074
590.000000	88.216	137.9016
600.000000	88.176	138.8311
608.000000	88.154	139.5911
615.000000	88.143	140.2574
622.000000	88.140	140.9180
630.000000	88.145	141.6604
640.000000	88.159	142.5660
650.000000	88.183	143.4568
660.000000	88.222	144.3357
670.000000	88.275	145.1591
680.000000	88.338	145.8918
690.000000	88.404	146.5385
700.000000	88.469	147.1165
710.000000	88.532	147.6464
720.000000	88.593	148.1458
730.000000	88.652	148.6215
740.000000	88.708	149.0796
750.000000	88.763	149.5335
762.000000	88.826	150.0853
775.000000	88.893	150.6974
788.000000	88.962	151.3284
800.000000	89.027	151.9359
812.000000	89.096	152.5673
825.000000	89.175	153.2690
838.000000	89.261	153.9836
850.000000	89.346	154.6517
862.000000	89.435	155.3290
875.000000	89.538	156.0681
885.000000	89.623	156.6383
900.000000	89.761	157.4966
912.000000	89.878	158.1781
925.000000	90.013	158.9034
938.000000	90.155	159.6127
950.000000	90.294	160.2475
962.000000	90.439	160.8623
975.000000	90.603	161.5040
988.000000	90.774	162.1158
1000.000000	90.937	162.6497
1015.000000	91.149	163.2723
1030.000000	91.368	163.8390
1044.000000	91.578	164.3163
1060.000000	91.826	164.8026
1075.000000	92.063	165.1970
1090.000000	92.305	165.5298
1106.000000	92.567	165.8155
1120.000000	92.799	166.0055
1138.000000	93.101	166.1715
1150.000000	93.304	166.2328
1172.000000	93.679	166.2456
1180.000000	93.815	166.2184
1206.000000	94.262	166.0098
1220.000000	94.503	165.8221
1241.000000	94.864	165.4419
1250.000000	95.018	165.2438
1265.000000	95.275	164.8666
1280.000000	95.531	164.4278
1315.000000	96.122	163.1553
1320.000000	96.206	162.9443
1340.000000	96.536	162.0257
1360.000000	96.859	160.9847
1380.000000	97.174	159.8215
1400.000000	97.479	158.5400
1430.000000	97.912	156.4059
1450.000000	98.181	154.8514
1475.000000	98.493	152.7719
1500.000000	98.773	150.5538
1525.000000	99.019	148.2319
1550.000000	99.230	145.8400
1575.000000	99.404	143.3824
1600.000000	99.537	140.9276
1625.000000	99.626	138.5482
1650.000000	99.671	136.2555
1675.000000	99.681	134.0729
1700.000000	99.661	132.0349
1725.000000	99.615	130.1549
1750.000000	99.548	128.4438
1775.000000	99.463	126.8954
1800.000000	99.360	125.5240
1825.000000	99.245	124.3391
1850.000000	99.123	123.3129
1875.000000	99.001	122.4245
1900.000000	98.881	121.6845
1925.000000	98.761	121.0886
1950.000000	98.644	120.6205
1975.000000	98.530	120.2693
2000.000000	98.420	120.0265
2030.000000	98.295	119.8680
2060.000000	98.180	119.8380
2090.000000	98.074	119.9255
2120.000000	97.978	120.1250
2140.000000	97.920	120.3159
2180.000000	97.819	120.8317
2200.000000	97.777	121.1578
2240.000000	97.713	121.9496
2270.000000	97.687	122.6619
2300.000000	97.688	123.4516
2330.000000	97.721	124.2585
2360.000000	97.784	124.9965
2400.000000	97.898	125.7633
2430.000000	97.988	126.1772
2470.000000	98.101	126.6190
2500.000000	98.183	126.9363
2540.000000	98.296	127.3702
2580.000000	98.423	127.7831
2620.000000	98.561	128.1324
2650.000000	98.669	128.3474
2690.000000	98.817	128.5821
2720.000000	98.931	128.7263
2760.000000	99.088	128.8801
2800.000000	99.252	128.9928
2850.000000	99.472	129.0572
2900.000000	99.707	129.0210
2950.000000	99.951	128.9142
3000.000000	100.209	128.6587
3040.000000	100.427	128.2859
3070.000000	100.593	127.8817
3110.000000	100.807	127.1661
3150.000000	101.007	126.2719
3200.000000	101.226	124.9758
3250.000000	101.412	123.5603
3300.000000	101.568	122.0775
3350.000000	101.696	120.5525
3400.000000	101.799	118.9979
3450.000000	101.876	117.4181
3500.000000	101.929	115.8141
3550.000000	101.957	114.1823
3600.000000	101.955	112.5176
3650.000000	101.918	110.8312
3700.000000	101.836	109.1698
3750.000000	101.706	107.6216
3820.000000	101.450	105.8534
3870.000000	101.233	104.9800
3950.000000	100.870	104.2727
4000.000000	100.652	104.1984
4060.000000	100.411	104.4022
4120.000000	100.202	104.8336
4180.000000	100.027	105.3690
4250.000000	99.858	105.9753
4310.000000	99.725	106.4144
4370.000000	99.590	106.7774
4440.000000	99.417	107.1497
4500.000000	99.247	107.4788
4550.000000	99.086	107.8088
4620.000000	98.834	108.4209
4680.000000	98.603	109.1185
4750.000000	98.324	110.2004
4820.000000	98.042	111.6142
4870.000000	97.846	112.8347
4940.000000	97.593	114.8271
5000.000000	97.403	116.7715
5080.000000	97.209	119.6255
5150.000000	97.104	122.2582
5220.000000	97.067	124.8810
5300.000000	97.109	127.6718
5380.000000	97.224	130.0137
5450.000000	97.360	131.5332
5520.000000	97.496	132.4783
5600.000000	97.606	132.8867
5700.000000	97.613	132.6906
5800.000000	97.440	132.3012
5900.000000	97.105	132.3484
6000.000000	96.669	133.2157
6080.000000	96.293	134.5683
6150.000000	95.969	136.1964
6220.000000	95.662	138.1830
6300.000000	95.345	140.8196
6400.000000	95.009	144.5515
6500.000000	94.747	148.6537
6600.000000	94.564	153.0334
6700.000000	94.466	157.6239
6800.000000	94.463	162.3831
6900.000000	94.575	167.2408
7000.000000	94.832	171.9631
7100.000000	95.220	176.0547
7200.000000	95.638	179.2646
7300.000000	96.038	-177.7948
7400.000000	96.512	-174.8483
7500.000000	97.086	-172.3870
7620.000000	97.851	-170.4801
7750.000000	98.719	-169.9108
7880.000000	99.548	-171.1772
8000.000000	100.158	-174.0343
8120.000000	100.503	-178.0602
8250.000000	100.521	177.3128
8380.000000	100.213	173.6404
8500.000000	99.746	171.7363
8620.000000	99.220	171.2953
8750.000000	98.675	172.1043
8850.000000	98.305	173.2994
9000.000000	97.835	175.4809
9120.000000	97.498	177.3343
9250.000000	97.127	179.4766
9380.000000	96.738	-178.0857
9500.000000	96.370	-175.4502
9620.000000	96.013	-172.3589
9750.000000	95.680	-168.5533
9880.000000	95.432	-164.5115
10000.000000	95.279	-160.8034
10150.000000	95.166	-156.3779
10300.000000	95.121	-152.1814
10440.000000	95.145	-148.4067
10600.000000	95.282	-144.3471
10750.000000	95.532	-141.0448
10900.000000	95.888	-138.4918
11060.000000	96.358	-136.8056
11200.000000	96.816	-136.3548
11380.000000	97.407	-137.3271
11500.000000	97.760	-138.9379
11720.000000	98.227	-143.5473
11800.000000	98.322	-145.6043
12060.000000	98.334	-152.8781
12200.000000	98.162	-156.8427
12410.000000	97.680	-162.6170
12500.000000	97.384	-164.9916
12650.000000	96.758	-168.7062
12800.000000	95.952	-171.9630
13150.000000	93.246	-175.8833
13200.000000	92.764	-175.6954
13400.000000	90.698	-172.5046
13600.000000	88.602	-165.8131
13800.000000	86.655	-156.6587
14000.000000	84.921	-146.0707
14300.000000	82.677	-129.0115
14500.000000	81.355	-117.4137
14750.000000	79.838	-103.0499
15000.000000	78.451	-89.1656
15250.000000	77.206	-76.1648
15500.000000	76.149	-64.5463
15750.000000	75.337	-54.8070
16000.000000	74.768	-47.0513
16250.000000	74.504	-38.5679
16500.000000	76.781	-19.3374
16750.000000	81.829	0.6157
17000.000000	84.757	-11.5840
17250.000000	85.250	-33.6985
17500.000000	84.264	-45.3273
17750.000000	82.586	-44.5184
18000.000000	81.003	-34.6321
18250.000000	79.978	-20.4772
18500.000000	79.421	-5.4099
18750.000000	79.029	9.3049
19000.000000	78.570	23.7712
19250.000000	77.951	38.7776
19500.000000	77.258	54.5140
19750.000000	76.676	68.6915
