* Measurement data measured by REW V5.20.13
* Source: EXCL: Headset (KM-HIFI-384KHZ), MICROPHONE (Master Volume), 0, volume: 1.000
* Format: 256k Log Swept Sine, 1 sweep at -20.0 dBFS with no timing reference
* Dated: Nov 12, 2023 9:55:41 PM
* REW Settings:
*  C-weighting compensation: Off
*  Target level: 75.0 dB
* Note: ; 
* Measurement: Kinera Skuld Show L
* Smoothing: 1/24 octave
* Frequency Step: 1/48 octave
* Start Frequency: 20.000 Hz
*
* Freq(Hz)	SPL(dB)	Phase(degrees)
20.000000	98.667	-136.2922
20.299999	98.701	-137.0076
20.600000	98.733	-137.7090
20.900000	98.763	-138.3951
21.200001	98.791	-139.0643
21.400000	98.810	-139.5002
21.799999	98.844	-140.3470
22.000000	98.861	-140.7584
22.400000	98.894	-141.5595
22.700001	98.918	-142.1441
23.000000	98.941	-142.7173
23.299999	98.964	-143.2800
23.600000	98.986	-143.8324
24.000000	99.014	-144.5516
24.299999	99.033	-145.0773
24.700001	99.058	-145.7595
25.000000	99.076	-146.2580
25.400000	99.099	-146.9074
25.799999	99.121	-147.5418
26.200001	99.142	-148.1625
26.500000	99.157	-148.6186
26.900000	99.175	-149.2129
27.200001	99.188	-149.6475
27.600000	99.205	-150.2124
28.000000	99.221	-150.7623
28.500000	99.240	-151.4320
29.000000	99.258	-152.0844
29.500000	99.275	-152.7189
30.000000	99.291	-153.3344
30.400000	99.303	-153.8136
30.700001	99.312	-154.1664
31.100000	99.323	-154.6287
31.500000	99.333	-155.0823
32.000000	99.346	-155.6357
32.500000	99.357	-156.1726
33.000000	99.367	-156.6928
33.500000	99.376	-157.1976
34.000000	99.384	-157.6870
34.500000	99.391	-158.1594
35.000000	99.398	-158.6137
35.500000	99.404	-159.0507
36.000000	99.411	-159.4720
36.500000	99.417	-159.8784
37.000000	99.424	-160.2687
37.500000	99.431	-160.6426
38.200001	99.445	-161.1432
38.700001	99.457	-161.4919
39.500000	99.480	-162.0521
40.000000	99.496	-162.4109
40.599998	99.515	-162.8534
41.200001	99.533	-163.3067
41.799999	99.550	-163.7645
42.500000	99.565	-164.2941
43.099998	99.577	-164.7379
43.700001	99.588	-165.1719
44.400002	99.600	-165.6718
45.000000	99.610	-166.1006
45.500000	99.617	-166.4590
46.200001	99.625	-166.9582
46.799999	99.629	-167.3794
47.500000	99.632	-167.8598
48.200001	99.633	-168.3255
48.700001	99.632	-168.6471
49.400002	99.631	-169.0809
50.000000	99.629	-169.4392
50.799999	99.626	-169.9009
51.500000	99.624	-170.2913
52.200001	99.621	-170.6694
53.000000	99.619	-171.0889
53.799999	99.616	-171.4976
54.500000	99.613	-171.8473
55.200001	99.611	-172.1896
56.000000	99.608	-172.5739
57.000000	99.604	-173.0483
58.000000	99.599	-173.5122
59.000000	99.593	-173.9578
60.000000	99.587	-174.3864
60.799999	99.583	-174.7210
61.500000	99.580	-175.0097
62.200001	99.576	-175.2941
63.000000	99.570	-175.6118
64.000000	99.563	-175.9973
65.000000	99.556	-176.3704
66.000000	99.548	-176.7318
67.000000	99.542	-177.0852
68.000000	99.536	-177.4331
69.000000	99.531	-177.7791
70.000000	99.527	-178.1260
71.000000	99.523	-178.4735
72.000000	99.518	-178.8225
73.000000	99.513	-179.1687
74.000000	99.506	-179.5091
75.000000	99.499	-179.8436
76.199997	99.489	179.7621
77.500000	99.477	179.3403
78.800003	99.462	178.9311
80.000000	99.449	178.5681
81.199997	99.435	178.2171
82.500000	99.419	177.8494
83.800003	99.403	177.4966
85.000000	99.387	177.1851
86.199997	99.371	176.8898
87.500000	99.354	176.5879
88.500000	99.341	176.3671
90.000000	99.322	176.0587
91.199997	99.309	175.8339
92.500000	99.297	175.6125
93.800003	99.291	175.4022
95.000000	99.289	175.2050
96.199997	99.293	174.9934
97.500000	99.300	174.7313
98.800003	99.309	174.4237
100.000000	99.315	174.1045
101.500000	99.315	173.6837
103.000000	99.308	173.2669
104.400002	99.297	172.8938
106.000000	99.282	172.4897
107.500000	99.267	172.1287
109.000000	99.254	171.7761
110.599998	99.241	171.4038
112.000000	99.229	171.0742
113.800003	99.212	170.6364
115.000000	99.197	170.3455
117.199997	99.167	169.8361
118.000000	99.156	169.6582
120.599998	99.119	169.1039
122.000000	99.098	168.8218
124.099998	99.067	168.4183
125.000000	99.054	168.2494
126.500000	99.032	167.9711
128.000000	99.009	167.6981
131.500000	98.958	167.0870
132.000000	98.950	167.0027
134.000000	98.920	166.6711
136.000000	98.891	166.3488
138.000000	98.862	166.0345
140.000000	98.835	165.7247
143.000000	98.794	165.2700
145.000000	98.766	164.9814
147.500000	98.733	164.6299
150.000000	98.701	164.2728
152.500000	98.669	163.9083
155.000000	98.634	163.5478
157.500000	98.599	163.1992
160.000000	98.563	162.8619
162.500000	98.526	162.5356
165.000000	98.489	162.2200
167.500000	98.452	161.9162
170.000000	98.415	161.6251
172.500000	98.379	161.3441
175.000000	98.343	161.0709
177.500000	98.308	160.8047
180.000000	98.275	160.5416
182.500000	98.242	160.2782
185.000000	98.211	160.0157
187.500000	98.178	159.7535
190.000000	98.146	159.4882
192.500000	98.113	159.2205
195.000000	98.080	158.9547
197.500000	98.045	158.6931
200.000000	98.010	158.4364
203.000000	97.966	158.1334
206.000000	97.920	157.8380
209.000000	97.874	157.5539
212.000000	97.827	157.2807
214.000000	97.796	157.1039
218.000000	97.733	156.7631
220.000000	97.701	156.5998
224.000000	97.635	156.2899
227.000000	97.585	156.0721
230.000000	97.535	155.8653
233.000000	97.483	155.6725
236.000000	97.430	155.4971
240.000000	97.356	155.2935
243.000000	97.299	155.1707
247.000000	97.220	155.0645
250.000000	97.160	155.0443
254.000000	97.081	155.1249
258.000000	97.012	155.3638
262.000000	96.969	155.7780
265.000000	96.969	156.1583
269.000000	97.024	156.5725
272.000000	97.099	156.6463
276.000000	97.203	156.2951
280.000000	97.267	155.5458
285.000000	97.270	154.4658
290.000000	97.214	153.5449
295.000000	97.136	152.8447
300.000000	97.051	152.3104
304.000000	96.984	151.9666
307.000000	96.935	151.7438
311.000000	96.872	151.4812
315.000000	96.811	151.2487
320.000000	96.738	150.9901
325.000000	96.668	150.7597
330.000000	96.600	150.5529
335.000000	96.535	150.3621
340.000000	96.472	150.1848
345.000000	96.410	150.0208
350.000000	96.349	149.8681
355.000000	96.289	149.7278
360.000000	96.231	149.6012
365.000000	96.173	149.4865
370.000000	96.117	149.3811
375.000000	96.061	149.2843
382.000000	95.987	149.1667
387.000000	95.935	149.0948
395.000000	95.854	148.9968
400.000000	95.805	148.9453
406.000000	95.747	148.8910
412.000000	95.690	148.8458
418.000000	95.636	148.8089
425.000000	95.574	148.7759
431.000000	95.523	148.7569
437.000000	95.472	148.7448
444.000000	95.414	148.7384
450.000000	95.365	148.7391
455.000000	95.324	148.7454
462.000000	95.269	148.7644
468.000000	95.223	148.7909
475.000000	95.170	148.8329
482.000000	95.118	148.8858
487.000000	95.082	148.9296
494.000000	95.033	149.0001
500.000000	94.992	149.0702
508.000000	94.939	149.1765
515.000000	94.894	149.2804
522.000000	94.851	149.3943
530.000000	94.803	149.5365
538.000000	94.757	149.6888
545.000000	94.719	149.8298
552.000000	94.682	149.9800
560.000000	94.641	150.1646
570.000000	94.592	150.4138
580.000000	94.546	150.6844
590.000000	94.505	150.9744
600.000000	94.466	151.2794
608.000000	94.438	151.5363
615.000000	94.414	151.7701
622.000000	94.393	152.0098
630.000000	94.371	152.2896
640.000000	94.347	152.6490
650.000000	94.326	153.0202
660.000000	94.308	153.4034
670.000000	94.293	153.8000
680.000000	94.282	154.2087
690.000000	94.274	154.6296
700.000000	94.269	155.0614
710.000000	94.268	155.5044
720.000000	94.271	155.9583
730.000000	94.277	156.4210
740.000000	94.288	156.8909
750.000000	94.303	157.3679
762.000000	94.326	157.9494
775.000000	94.358	158.5869
788.000000	94.397	159.2310
800.000000	94.440	159.8289
812.000000	94.488	160.4246
825.000000	94.548	161.0649
838.000000	94.614	161.6989
850.000000	94.682	162.2757
862.000000	94.757	162.8408
875.000000	94.845	163.4355
885.000000	94.917	163.8765
900.000000	95.032	164.5067
912.000000	95.130	164.9814
925.000000	95.241	165.4632
938.000000	95.357	165.9094
950.000000	95.467	166.2894
962.000000	95.581	166.6378
975.000000	95.706	166.9792
988.000000	95.834	167.2837
1000.000000	95.953	167.5315
1015.000000	96.105	167.7942
1030.000000	96.260	167.9950
1044.000000	96.405	168.1143
1060.000000	96.566	168.1729
1075.000000	96.710	168.1747
1090.000000	96.844	168.1545
1106.000000	96.978	168.1463
1120.000000	97.091	168.1819
1138.000000	97.240	168.3190
1150.000000	97.351	168.4594
1172.000000	97.592	168.6915
1180.000000	97.693	168.7164
1206.000000	98.042	168.3491
1220.000000	98.219	167.8354
1241.000000	98.436	166.7697
1250.000000	98.508	166.2600
1265.000000	98.602	165.4106
1280.000000	98.667	164.6145
1315.000000	98.750	163.1136
1320.000000	98.757	162.9392
1340.000000	98.777	162.3207
1360.000000	98.780	161.8369
1380.000000	98.770	161.5526
1400.000000	98.766	161.5153
1430.000000	98.817	161.7134
1450.000000	98.890	161.7262
1475.000000	98.980	161.3978
1500.000000	99.015	160.8453
1525.000000	98.982	160.4462
1550.000000	98.915	160.5004
1575.000000	98.868	161.0721
1600.000000	98.894	161.9511
1625.000000	99.009	162.7081
1650.000000	99.172	162.9408
1675.000000	99.312	162.5829
1700.000000	99.382	161.9098
1725.000000	99.378	161.2632
1750.000000	99.324	160.8458
1775.000000	99.245	160.7074
1800.000000	99.158	160.8162
1825.000000	99.071	161.1317
1850.000000	98.989	161.6289
1875.000000	98.916	162.2870
1900.000000	98.856	163.0770
1925.000000	98.811	163.9650
1950.000000	98.781	164.9191
1975.000000	98.765	165.9183
2000.000000	98.760	166.9574
2030.000000	98.770	168.2641
2060.000000	98.802	169.6348
2090.000000	98.862	171.0275
2120.000000	98.952	172.3599
2140.000000	99.024	173.1768
2180.000000	99.180	174.6125
2200.000000	99.257	175.2524
2240.000000	99.408	176.4558
2270.000000	99.521	177.3239
2300.000000	99.637	178.1599
2330.000000	99.756	178.9526
2360.000000	99.876	179.6982
2400.000000	100.037	-179.3749
2430.000000	100.157	-178.7192
2470.000000	100.316	-177.8817
2500.000000	100.437	-177.2730
2540.000000	100.602	-176.4802
2580.000000	100.778	-175.7146
2620.000000	100.970	-175.0117
2650.000000	101.127	-174.5655
2690.000000	101.352	-174.1460
2720.000000	101.526	-174.0026
2760.000000	101.755	-174.0663
2800.000000	101.968	-174.4098
2850.000000	102.198	-175.1707
2900.000000	102.374	-176.2038
2950.000000	102.492	-177.3889
3000.000000	102.555	-178.6071
3040.000000	102.572	-179.5473
3070.000000	102.568	179.7842
3110.000000	102.548	178.9474
3150.000000	102.517	178.1632
3200.000000	102.467	177.2107
3250.000000	102.410	176.2044
3300.000000	102.339	175.0461
3350.000000	102.238	173.6645
3400.000000	102.087	172.0418
3450.000000	101.859	170.2342
3500.000000	101.533	168.3859
3550.000000	101.089	166.7393
3600.000000	100.525	165.6274
3650.000000	99.860	165.4205
3700.000000	99.145	166.4136
3750.000000	98.454	168.6958
3820.000000	97.680	173.6465
3870.000000	97.337	177.8381
3950.000000	97.155	-175.6052
4000.000000	97.216	-172.0798
4060.000000	97.400	-168.6447
4120.000000	97.655	-166.1036
4180.000000	97.948	-164.4373
4250.000000	98.302	-163.5873
4310.000000	98.585	-163.7910
4370.000000	98.821	-164.8199
4440.000000	99.001	-166.9390
4500.000000	99.046	-169.3571
4550.000000	98.997	-171.6250
4620.000000	98.794	-174.8934
4680.000000	98.506	-177.5322
4750.000000	98.068	179.8244
4820.000000	97.559	177.7933
4870.000000	97.174	176.7411
4940.000000	96.636	175.7999
5000.000000	96.196	175.4369
5080.000000	95.667	175.4929
5150.000000	95.281	175.9492
5220.000000	94.982	176.6832
5300.000000	94.763	177.7433
5380.000000	94.686	178.9231
5450.000000	94.745	179.9631
5520.000000	94.929	-179.0830
5600.000000	95.300	-178.2349
5700.000000	96.008	-177.8372
5800.000000	96.968	-178.6901
5900.000000	98.101	178.4872
6000.000000	99.230	173.0069
6080.000000	99.955	166.5970
6150.000000	100.345	159.9202
6220.000000	100.452	152.9897
6300.000000	100.233	145.8305
6400.000000	99.574	139.3481
6500.000000	98.708	136.1131
6600.000000	97.844	135.7103
6700.000000	97.093	137.4443
6800.000000	96.498	140.8290
6900.000000	96.088	145.4716
7000.000000	95.876	150.9739
7100.000000	95.862	156.9329
7200.000000	96.022	163.0426
7300.000000	96.338	169.1508
7400.000000	96.810	175.1102
7500.000000	97.440	-179.2850
7620.000000	98.403	-173.4207
7750.000000	99.669	-168.8562
7880.000000	101.053	-167.1894
8000.000000	102.221	-169.0988
8120.000000	102.999	-174.3261
8250.000000	103.155	178.1750
8380.000000	102.595	172.0457
8500.000000	101.664	169.5115
8620.000000	100.601	170.0554
8750.000000	99.506	173.2225
8850.000000	98.764	176.8357
9000.000000	97.823	-176.6465
9120.000000	97.194	-170.8875
9250.000000	96.603	-164.3072
9380.000000	96.089	-157.4615
9500.000000	95.673	-150.9770
9620.000000	95.311	-144.4499
9750.000000	94.961	-137.5148
9880.000000	94.605	-130.8250
10000.000000	94.210	-124.6640
10150.000000	93.586	-116.1222
10300.000000	92.922	-105.6160
10440.000000	92.482	-94.0319
10600.000000	92.393	-79.9526
10750.000000	92.712	-67.4580
10900.000000	93.273	-56.7280
11060.000000	93.928	-47.6161
11200.000000	94.414	-41.3829
11380.000000	94.807	-34.9128
11500.000000	94.906	-30.9893
11720.000000	94.802	-23.4056
11800.000000	94.701	-20.3232
12060.000000	94.294	-8.8113
12200.000000	94.104	-1.7992
12410.000000	93.945	9.2609
12500.000000	93.932	14.0228
12650.000000	93.983	21.7586
12800.000000	94.111	29.0327
13150.000000	94.573	43.0649
13200.000000	94.640	44.6320
13400.000000	94.837	49.5998
13600.000000	94.805	52.5762
13800.000000	94.400	54.3456
14000.000000	93.557	56.3791
14300.000000	91.615	63.0242
14500.000000	90.094	70.7463
14750.000000	88.217	83.6899
15000.000000	86.541	99.3869
15250.000000	85.151	117.1586
15500.000000	84.111	136.5647
15750.000000	83.516	157.0429
16000.000000	83.443	177.6599
16250.000000	83.928	-162.6605
16500.000000	84.976	-145.5640
16750.000000	86.286	-133.8903
17000.000000	87.165	-129.1003
17250.000000	87.123	-127.7122
17500.000000	86.281	-124.6904
17750.000000	85.069	-118.9577
18000.000000	83.686	-111.6785
18250.000000	82.126	-102.9337
18500.000000	80.484	-92.8005
18750.000000	78.853	-82.3485
19000.000000	77.120	-71.9072
19250.000000	75.134	-60.2637
19500.000000	72.920	-46.4949
19750.000000	70.702	-32.1678
