* Measurement data measured by REW V5.20.13
* Source: EXCL: Headset (KM-HIFI-384KHZ), MICROPHONE (Master Volume), 0, volume: 1.000
* Format: 256k Log Swept Sine, 1 sweep at -20.0 dBFS with no timing reference
* Dated: Nov 12, 2023 11:09:09 PM
* REW Settings:
*  C-weighting compensation: Off
*  Target level: 75.0 dB
* Note: ; 
* Measurement: Kinera Freya Show L
* Smoothing: 1/24 octave
* Frequency Step: 1/48 octave
* Start Frequency: 20.000 Hz
*
* Freq(Hz)	SPL(dB)	Phase(degrees)
20.000000	100.747	-170.3713
20.299999	100.743	-170.8094
20.600000	100.739	-171.2328
20.900000	100.736	-171.6464
21.200001	100.735	-172.0562
21.400000	100.735	-172.3299
21.799999	100.735	-172.8817
22.000000	100.734	-173.1603
22.400000	100.730	-173.7209
22.700001	100.725	-174.1386
23.000000	100.717	-174.5445
23.299999	100.706	-174.9292
23.600000	100.695	-175.2866
24.000000	100.681	-175.7196
24.299999	100.674	-176.0222
24.700001	100.671	-176.4220
25.000000	100.671	-176.7389
25.400000	100.672	-177.1980
25.799999	100.667	-177.6871
26.200001	100.654	-178.1691
26.500000	100.639	-178.5007
26.900000	100.618	-178.8854
27.200001	100.605	-179.1346
27.600000	100.595	-179.4395
28.000000	100.594	-179.7556
28.500000	100.598	179.7817
29.000000	100.596	179.2415
29.500000	100.581	178.6828
30.000000	100.555	178.1802
30.400000	100.533	177.8349
30.700001	100.518	177.5984
31.100000	100.501	177.2902
31.500000	100.484	176.9793
32.000000	100.461	176.6057
32.500000	100.436	176.2862
33.000000	100.419	176.0156
33.500000	100.412	175.7368
34.000000	100.410	175.4085
34.500000	100.404	175.0566
35.000000	100.399	174.7210
35.500000	100.400	174.3794
36.000000	100.406	173.9647
36.500000	100.403	173.4637
37.000000	100.384	172.9580
37.500000	100.353	172.5377
38.200001	100.318	172.0796
38.700001	100.302	171.7466
39.500000	100.267	171.1676
40.000000	100.239	170.8628
40.599998	100.212	170.5688
41.200001	100.199	170.2493
41.799999	100.184	169.8481
42.500000	100.153	169.3591
43.099998	100.119	169.0055
43.700001	100.091	168.6971
44.400002	100.067	168.3251
45.000000	100.047	167.9726
45.500000	100.027	167.6705
46.200001	99.996	167.2714
46.799999	99.970	166.9707
47.500000	99.947	166.6489
48.200001	99.929	166.3131
48.700001	99.916	166.0528
49.400002	99.893	165.6765
50.000000	99.866	165.3723
50.799999	99.827	165.0305
51.500000	99.797	164.7779
52.200001	99.773	164.5125
53.000000	99.744	164.1631
53.799999	99.710	163.7913
54.500000	99.678	163.4590
55.200001	99.642	163.1372
56.000000	99.602	162.8088
57.000000	99.560	162.4093
58.000000	99.522	162.0032
59.000000	99.487	161.5957
60.000000	99.449	161.1559
60.799999	99.413	160.8364
61.500000	99.382	160.5656
62.200001	99.349	160.2901
63.000000	99.306	160.0181
64.000000	99.262	159.7213
65.000000	99.223	159.3744
66.000000	99.181	159.0401
67.000000	99.143	158.6980
68.000000	99.099	158.3341
69.000000	99.052	158.0323
70.000000	99.011	157.7346
71.000000	98.965	157.4202
72.000000	98.919	157.1415
73.000000	98.878	156.8426
74.000000	98.834	156.5142
75.000000	98.787	156.2210
76.199997	98.740	155.8693
77.500000	98.683	155.4624
78.800003	98.622	155.1406
80.000000	98.572	154.8592
81.199997	98.519	154.5719
82.500000	98.461	154.3146
83.800003	98.412	154.0496
85.000000	98.365	153.7781
86.199997	98.317	153.5433
87.500000	98.271	153.3078
88.500000	98.238	153.0956
90.000000	98.181	152.7546
91.199997	98.134	152.4999
92.500000	98.086	152.2198
93.800003	98.037	151.9266
95.000000	97.990	151.6743
96.199997	97.940	151.4678
97.500000	97.886	151.2871
98.800003	97.833	151.1108
100.000000	97.781	150.9369
101.500000	97.713	150.7098
103.000000	97.648	150.4908
104.400002	97.594	150.3093
106.000000	97.542	150.1298
107.500000	97.497	149.9897
109.000000	97.452	149.8797
110.599998	97.403	149.7854
112.000000	97.363	149.7012
113.800003	97.321	149.5654
115.000000	97.299	149.4492
117.199997	97.267	149.1751
118.000000	97.255	149.0573
120.599998	97.212	148.6147
122.000000	97.183	148.3409
124.099998	97.133	147.9060
125.000000	97.109	147.7208
126.500000	97.065	147.4263
128.000000	97.018	147.1516
131.500000	96.902	146.5963
132.000000	96.885	146.5263
134.000000	96.820	146.2702
136.000000	96.760	146.0463
138.000000	96.706	145.8430
140.000000	96.658	145.6309
143.000000	96.594	145.2484
145.000000	96.551	144.9471
147.500000	96.492	144.5398
150.000000	96.423	144.1364
152.500000	96.343	143.7547
155.000000	96.258	143.3922
157.500000	96.172	143.0507
160.000000	96.089	142.7426
162.500000	96.007	142.4769
165.000000	95.923	142.2405
167.500000	95.840	142.0155
170.000000	95.760	141.7988
172.500000	95.681	141.5999
175.000000	95.604	141.4199
177.500000	95.526	141.2475
180.000000	95.450	141.0797
182.500000	95.374	140.9230
185.000000	95.300	140.7773
187.500000	95.226	140.6407
190.000000	95.151	140.5121
192.500000	95.078	140.3895
195.000000	95.006	140.2733
197.500000	94.934	140.1650
200.000000	94.863	140.0634
203.000000	94.777	139.9540
206.000000	94.692	139.8613
209.000000	94.608	139.7741
212.000000	94.524	139.6920
214.000000	94.467	139.6452
218.000000	94.351	139.5840
220.000000	94.292	139.5722
224.000000	94.175	139.5859
227.000000	94.087	139.6276
230.000000	93.998	139.6996
233.000000	93.908	139.8170
236.000000	93.818	139.9984
240.000000	93.697	140.3755
243.000000	93.613	140.7891
247.000000	93.526	141.5348
250.000000	93.495	142.2033
254.000000	93.522	143.0520
258.000000	93.625	143.5072
262.000000	93.751	143.3418
265.000000	93.821	142.8919
269.000000	93.851	142.1224
272.000000	93.831	141.5479
276.000000	93.768	140.8648
280.000000	93.691	140.3324
285.000000	93.585	139.8809
290.000000	93.476	139.5636
295.000000	93.374	139.3495
300.000000	93.275	139.1987
304.000000	93.200	139.1174
307.000000	93.145	139.0742
311.000000	93.073	139.0302
315.000000	93.005	138.9977
320.000000	92.923	138.9757
325.000000	92.845	138.9745
330.000000	92.769	138.9843
335.000000	92.696	139.0067
340.000000	92.626	139.0418
345.000000	92.558	139.0844
350.000000	92.492	139.1340
355.000000	92.428	139.1919
360.000000	92.367	139.2567
365.000000	92.308	139.3250
370.000000	92.250	139.3998
375.000000	92.195	139.4806
382.000000	92.121	139.5945
387.000000	92.069	139.6816
395.000000	91.990	139.8336
400.000000	91.942	139.9348
406.000000	91.887	140.0583
412.000000	91.834	140.1865
418.000000	91.783	140.3186
425.000000	91.726	140.4819
431.000000	91.680	140.6288
437.000000	91.635	140.7771
444.000000	91.584	140.9518
450.000000	91.543	141.1056
455.000000	91.510	141.2382
462.000000	91.466	141.4285
468.000000	91.430	141.5922
475.000000	91.390	141.7859
482.000000	91.353	141.9868
487.000000	91.327	142.1341
494.000000	91.292	142.3450
500.000000	91.265	142.5302
508.000000	91.231	142.7811
515.000000	91.204	143.0020
522.000000	91.179	143.2272
530.000000	91.153	143.4877
538.000000	91.130	143.7477
545.000000	91.111	143.9747
552.000000	91.093	144.2013
560.000000	91.075	144.4619
570.000000	91.056	144.7907
580.000000	91.039	145.1228
590.000000	91.024	145.4589
600.000000	91.012	145.8029
608.000000	91.004	146.0821
615.000000	90.999	146.3300
622.000000	90.996	146.5829
630.000000	90.993	146.8774
640.000000	90.993	147.2496
650.000000	90.997	147.6241
660.000000	91.003	148.0016
670.000000	91.012	148.3847
680.000000	91.024	148.7735
690.000000	91.038	149.1680
700.000000	91.055	149.5687
710.000000	91.075	149.9710
720.000000	91.097	150.3803
730.000000	91.123	150.7954
740.000000	91.152	151.2137
750.000000	91.182	151.6376
762.000000	91.222	152.1570
775.000000	91.270	152.7305
788.000000	91.321	153.3181
800.000000	91.373	153.8728
812.000000	91.429	154.4438
825.000000	91.496	155.0878
838.000000	91.568	155.7597
850.000000	91.643	156.4045
862.000000	91.726	157.0710
875.000000	91.828	157.8135
885.000000	91.916	158.3896
900.000000	92.067	159.2353
912.000000	92.203	159.8669
925.000000	92.364	160.4772
938.000000	92.536	160.9891
950.000000	92.700	161.3681
962.000000	92.866	161.6613
975.000000	93.045	161.8889
988.000000	93.220	162.0353
1000.000000	93.378	162.1152
1015.000000	93.570	162.1640
1030.000000	93.757	162.1689
1044.000000	93.925	162.1390
1060.000000	94.111	162.0795
1075.000000	94.283	162.0090
1090.000000	94.454	161.9210
1106.000000	94.635	161.8005
1120.000000	94.795	161.6722
1138.000000	95.001	161.4535
1150.000000	95.137	161.2529
1172.000000	95.377	160.7773
1180.000000	95.459	160.5820
1206.000000	95.709	159.9163
1220.000000	95.834	159.5515
1241.000000	96.012	159.0045
1250.000000	96.085	158.7726
1265.000000	96.204	158.3896
1280.000000	96.317	158.0083
1315.000000	96.566	157.1297
1320.000000	96.600	157.0071
1340.000000	96.731	156.5256
1360.000000	96.855	156.0576
1380.000000	96.974	155.6005
1400.000000	97.086	155.1562
1430.000000	97.242	154.5259
1450.000000	97.340	154.1318
1475.000000	97.453	153.6764
1500.000000	97.558	153.2714
1525.000000	97.655	152.9154
1550.000000	97.744	152.6127
1575.000000	97.826	152.3804
1600.000000	97.900	152.2362
1625.000000	97.970	152.2003
1650.000000	98.039	152.3027
1675.000000	98.114	152.5625
1700.000000	98.208	152.9731
1725.000000	98.330	153.4913
1750.000000	98.492	154.0140
1775.000000	98.689	154.4068
1800.000000	98.906	154.5658
1825.000000	99.119	154.4890
1850.000000	99.317	154.2660
1875.000000	99.499	153.9744
1900.000000	99.671	153.6718
1925.000000	99.837	153.3777
1950.000000	99.996	153.0549
1975.000000	100.145	152.6665
2000.000000	100.280	152.2412
2030.000000	100.423	151.7581
2060.000000	100.554	151.3684
2090.000000	100.685	151.0725
2120.000000	100.823	150.8102
2140.000000	100.918	150.6248
2180.000000	101.108	150.2075
2200.000000	101.200	149.9835
2240.000000	101.380	149.5164
2270.000000	101.511	149.1425
2300.000000	101.637	148.7454
2330.000000	101.755	148.3362
2360.000000	101.866	147.9334
2400.000000	102.006	147.4257
2430.000000	102.109	147.0592
2470.000000	102.242	146.5618
2500.000000	102.336	146.1758
2540.000000	102.452	145.6622
2580.000000	102.558	145.1794
2620.000000	102.659	144.7359
2650.000000	102.733	144.4127
2690.000000	102.830	143.9653
2720.000000	102.898	143.6104
2760.000000	102.978	143.1189
2800.000000	103.046	142.6263
2850.000000	103.111	142.0378
2900.000000	103.155	141.5222
2950.000000	103.179	141.1475
3000.000000	103.195	140.9534
3040.000000	103.209	140.9221
3070.000000	103.224	140.9567
3110.000000	103.249	141.0585
3150.000000	103.278	141.2072
3200.000000	103.319	141.4600
3250.000000	103.364	141.8049
3300.000000	103.417	142.2488
3350.000000	103.482	142.7777
3400.000000	103.561	143.3711
3450.000000	103.654	144.0166
3500.000000	103.766	144.7013
3550.000000	103.899	145.3864
3600.000000	104.052	146.0182
3650.000000	104.219	146.5746
3700.000000	104.398	147.0482
3750.000000	104.588	147.4165
3820.000000	104.867	147.7205
3870.000000	105.070	147.7792
3950.000000	105.400	147.5682
4000.000000	105.606	147.1955
4060.000000	105.842	146.4272
4120.000000	106.043	145.2703
4180.000000	106.185	143.7586
4250.000000	106.240	141.7368
4310.000000	106.182	140.0645
4370.000000	106.040	138.6953
4440.000000	105.800	137.6702
4500.000000	105.564	137.3380
4550.000000	105.369	137.4170
4620.000000	105.121	137.9357
4680.000000	104.943	138.5985
4750.000000	104.771	139.4346
4820.000000	104.619	140.2111
4870.000000	104.509	140.7106
4940.000000	104.338	141.3758
5000.000000	104.168	141.9840
5080.000000	103.906	142.9759
5150.000000	103.651	144.1117
5220.000000	103.383	145.5577
5300.000000	103.079	147.6115
5380.000000	102.792	150.0715
5450.000000	102.569	152.5172
5520.000000	102.378	155.1884
5600.000000	102.208	158.4496
5700.000000	102.074	162.7194
5800.000000	102.032	167.0532
5900.000000	102.083	171.2876
6000.000000	102.221	175.2527
6080.000000	102.388	178.1158
6150.000000	102.565	-179.6792
6220.000000	102.763	-177.8100
6300.000000	102.999	-176.1384
6400.000000	103.276	-174.7905
6500.000000	103.489	-174.2288
6600.000000	103.595	-174.2741
6700.000000	103.564	-174.6140
6800.000000	103.389	-174.8644
6900.000000	103.082	-174.6234
7000.000000	102.689	-173.5650
7100.000000	102.270	-171.5887
7200.000000	101.881	-168.8159
7300.000000	101.552	-165.4220
7400.000000	101.304	-161.5566
7500.000000	101.159	-157.3849
7620.000000	101.140	-152.2648
7750.000000	101.325	-147.0392
7880.000000	101.714	-142.7611
8000.000000	102.207	-140.2867
8120.000000	102.727	-139.8177
8250.000000	103.136	-141.8958
8380.000000	103.165	-146.0540
8500.000000	102.744	-150.2118
8620.000000	101.929	-153.0382
8750.000000	100.770	-153.5719
8850.000000	99.816	-152.1761
9000.000000	98.458	-147.8015
9120.000000	97.511	-143.0146
9250.000000	96.653	-137.2272
9380.000000	95.960	-131.3850
9500.000000	95.421	-126.3326
9620.000000	94.917	-121.8411
9750.000000	94.322	-117.6199
9880.000000	93.584	-113.6853
10000.000000	92.725	-109.5887
10150.000000	91.433	-102.5699
10300.000000	90.075	-92.4309
10440.000000	89.038	-80.3447
10600.000000	88.439	-65.3533
10750.000000	88.433	-52.4683
10900.000000	88.690	-41.9135
11060.000000	88.986	-32.9632
11200.000000	89.179	-26.3400
11380.000000	89.353	-18.7039
11500.000000	89.446	-14.0379
11720.000000	89.589	-6.3631
11800.000000	89.633	-3.8722
12060.000000	89.712	3.0027
12200.000000	89.681	5.9830
12410.000000	89.484	9.8851
12500.000000	89.339	11.5050
12650.000000	89.025	14.3463
12800.000000	88.643	17.5172
13150.000000	87.645	26.2771
13200.000000	87.500	27.6241
13400.000000	86.918	33.0150
13600.000000	86.286	38.2438
13800.000000	85.527	43.4152
14000.000000	84.577	49.0771
14300.000000	82.798	60.1220
14500.000000	81.478	69.8774
14750.000000	79.850	84.7622
15000.000000	78.398	102.0043
15250.000000	77.218	120.7087
15500.000000	76.342	140.0001
15750.000000	75.765	159.1784
16000.000000	75.478	177.5800
16250.000000	75.488	-165.6433
16500.000000	75.780	-151.9167
16750.000000	76.188	-143.6010
17000.000000	76.226	-143.0310
17250.000000	75.178	-148.4457
17500.000000	72.484	-148.7839
17750.000000	68.464	-131.3598
18000.000000	65.730	-107.1472
18250.000000	65.096	-92.6158
18500.000000	64.300	-81.6780
18750.000000	63.415	-65.6718
19000.000000	63.516	-45.7834
19250.000000	64.534	-27.1514
19500.000000	65.693	-11.4252
19750.000000	66.604	1.3181
