* Measurement data measured by REW V5.20.13
* Source: EXCL: Headset (KM-HIFI-384KHZ), MICROPHONE (Master Volume), 0, volume: 1.000
* Format: 256k Log Swept Sine, 1 sweep at -20.0 dBFS with no timing reference
* Dated: Nov 12, 2023 9:45:36 PM
* REW Settings:
*  C-weighting compensation: Off
*  Target level: 75.0 dB
* Note: ; 
* Measurement: Kinera Loki-Emerald Show R
* Smoothing: 1/24 octave
* Frequency Step: 1/48 octave
* Start Frequency: 20.000 Hz
*
* Freq(Hz)	SPL(dB)	Phase(degrees)
20.000000	108.006	-166.9683
20.299999	108.002	-167.8422
20.600000	107.997	-168.6980
20.900000	107.991	-169.5360
21.200001	107.983	-170.3567
21.400000	107.977	-170.8946
21.799999	107.963	-171.9495
22.000000	107.955	-172.4672
22.400000	107.938	-173.4842
22.700001	107.925	-174.2319
23.000000	107.910	-174.9676
23.299999	107.895	-175.6913
23.600000	107.878	-176.4032
24.000000	107.855	-177.3337
24.299999	107.837	-178.0179
24.700001	107.813	-178.9127
25.000000	107.794	-179.5715
25.400000	107.768	179.5654
25.799999	107.741	178.7192
26.200001	107.713	177.8901
26.500000	107.692	177.2801
26.900000	107.663	176.4833
27.200001	107.640	175.8984
27.600000	107.609	175.1353
28.000000	107.578	174.3900
28.500000	107.539	173.4803
29.000000	107.498	172.5923
29.500000	107.456	171.7252
30.000000	107.413	170.8804
30.400000	107.378	170.2208
30.700001	107.351	169.7347
31.100000	107.315	169.0966
31.500000	107.279	168.4685
32.000000	107.233	167.6964
32.500000	107.186	166.9396
33.000000	107.138	166.1998
33.500000	107.090	165.4771
34.000000	107.041	164.7701
34.500000	106.993	164.0777
35.000000	106.944	163.3998
35.500000	106.895	162.7368
36.000000	106.845	162.0891
36.500000	106.796	161.4560
37.000000	106.746	160.8367
37.500000	106.695	160.2311
38.200001	106.624	159.4068
38.700001	106.573	158.8350
39.500000	106.491	157.9460
40.000000	106.439	157.4040
40.599998	106.377	156.7675
41.200001	106.314	156.1490
41.799999	106.252	155.5502
42.500000	106.180	154.8716
43.099998	106.119	154.3010
43.700001	106.058	153.7383
44.400002	105.986	153.0939
45.000000	105.924	152.5542
45.500000	105.872	152.1154
46.200001	105.798	151.5211
46.799999	105.735	151.0330
47.500000	105.661	150.4890
48.200001	105.587	149.9745
48.700001	105.536	149.6269
49.400002	105.466	149.1662
50.000000	105.410	148.7887
50.799999	105.341	148.2964
51.500000	105.286	147.8604
52.200001	105.234	147.4012
53.000000	105.175	146.8407
53.799999	105.113	146.2601
54.500000	105.055	145.7526
55.200001	104.995	145.2502
56.000000	104.924	144.6854
57.000000	104.832	144.0062
58.000000	104.738	143.3605
59.000000	104.645	142.7407
60.000000	104.551	142.1466
60.799999	104.476	141.6902
61.500000	104.411	141.3022
62.200001	104.345	140.9237
63.000000	104.271	140.5042
64.000000	104.179	139.9998
65.000000	104.088	139.5131
66.000000	103.998	139.0416
67.000000	103.909	138.5865
68.000000	103.821	138.1485
69.000000	103.734	137.7224
70.000000	103.649	137.3061
71.000000	103.563	136.9042
72.000000	103.478	136.5164
73.000000	103.394	136.1371
74.000000	103.310	135.7645
75.000000	103.228	135.3981
76.199997	103.129	134.9667
77.500000	103.025	134.5109
78.800003	102.922	134.0676
80.000000	102.830	133.6729
81.199997	102.739	133.2933
82.500000	102.641	132.8992
83.800003	102.544	132.5232
85.000000	102.455	132.1881
86.199997	102.366	131.8621
87.500000	102.271	131.5175
88.500000	102.199	131.2567
90.000000	102.093	130.8747
91.199997	102.009	130.5796
92.500000	101.920	130.2699
93.800003	101.831	129.9703
95.000000	101.749	129.7036
96.199997	101.668	129.4469
97.500000	101.581	129.1774
98.800003	101.496	128.9140
100.000000	101.418	128.6783
101.500000	101.323	128.3964
103.000000	101.229	128.1263
104.400002	101.143	127.8830
106.000000	101.045	127.6155
107.500000	100.956	127.3707
109.000000	100.868	127.1303
110.599998	100.776	126.8804
112.000000	100.697	126.6676
113.800003	100.596	126.4030
115.000000	100.530	126.2333
117.199997	100.408	125.9373
118.000000	100.365	125.8337
120.599998	100.227	125.5051
122.000000	100.153	125.3358
124.099998	100.044	125.0993
125.000000	99.998	125.0054
126.500000	99.921	124.8581
128.000000	99.847	124.7218
131.500000	99.679	124.4457
132.000000	99.655	124.4120
134.000000	99.565	124.2960
136.000000	99.478	124.2206
138.000000	99.398	124.2023
140.000000	99.327	124.2755
143.000000	99.288	124.7159
145.000000	99.422	125.0906
147.500000	99.851	123.1986
150.000000	99.651	117.9049
152.500000	98.826	117.4029
155.000000	98.463	119.0642
157.500000	98.342	119.8932
160.000000	98.247	120.2340
162.500000	98.150	120.4305
165.000000	98.053	120.5901
167.500000	97.960	120.7725
170.000000	97.880	121.0225
172.500000	97.829	121.2938
175.000000	97.815	121.4663
177.500000	97.839	121.3525
180.000000	97.874	120.6232
182.500000	97.798	119.1746
185.000000	97.515	118.3631
187.500000	97.260	119.1088
190.000000	97.195	119.9988
192.500000	97.213	120.2837
195.000000	97.249	119.9843
197.500000	97.230	118.9388
200.000000	97.013	118.0491
203.000000	96.735	118.9821
206.000000	96.712	119.7800
209.000000	96.681	119.6820
212.000000	96.604	119.5949
214.000000	96.550	119.6042
218.000000	96.453	119.6943
220.000000	96.410	119.7536
224.000000	96.335	119.8507
227.000000	96.288	119.8687
230.000000	96.244	119.8317
233.000000	96.198	119.7543
236.000000	96.149	119.6588
240.000000	96.082	119.5206
243.000000	96.033	119.3891
247.000000	95.957	119.1653
250.000000	95.890	119.0337
254.000000	95.797	118.9393
258.000000	95.712	118.9650
262.000000	95.643	118.9708
265.000000	95.592	118.9381
269.000000	95.522	118.8995
272.000000	95.470	118.8871
276.000000	95.406	118.8896
280.000000	95.346	118.9029
285.000000	95.276	118.9171
290.000000	95.214	118.9137
295.000000	95.155	118.8872
300.000000	95.098	118.8441
304.000000	95.053	118.7978
307.000000	95.018	118.7616
311.000000	94.973	118.7145
315.000000	94.929	118.6695
320.000000	94.873	118.6180
325.000000	94.819	118.5762
330.000000	94.765	118.5396
335.000000	94.714	118.5073
340.000000	94.666	118.4836
345.000000	94.620	118.4701
350.000000	94.574	118.4631
355.000000	94.531	118.4619
360.000000	94.489	118.4702
365.000000	94.450	118.4944
370.000000	94.414	118.5376
375.000000	94.381	118.5960
382.000000	94.346	118.7000
387.000000	94.331	118.7712
395.000000	94.324	118.7927
400.000000	94.323	118.7133
406.000000	94.314	118.5477
412.000000	94.294	118.3691
418.000000	94.267	118.2202
425.000000	94.230	118.0906
431.000000	94.200	118.0118
437.000000	94.171	117.9583
444.000000	94.141	117.9218
450.000000	94.118	117.9062
455.000000	94.101	117.9007
462.000000	94.079	117.9030
468.000000	94.062	117.9127
475.000000	94.043	117.9351
482.000000	94.028	117.9764
487.000000	94.020	118.0179
494.000000	94.013	118.0896
500.000000	94.011	118.1539
508.000000	94.016	118.2320
515.000000	94.024	118.2851
522.000000	94.034	118.3220
530.000000	94.048	118.3488
538.000000	94.064	118.3686
545.000000	94.078	118.3835
552.000000	94.093	118.3989
560.000000	94.111	118.4178
570.000000	94.138	118.4399
580.000000	94.169	118.4655
590.000000	94.202	118.4926
600.000000	94.240	118.5164
608.000000	94.272	118.5348
615.000000	94.302	118.5519
622.000000	94.334	118.5670
630.000000	94.372	118.5796
640.000000	94.424	118.5875
650.000000	94.480	118.5819
660.000000	94.541	118.5520
670.000000	94.605	118.4760
680.000000	94.668	118.3339
690.000000	94.722	118.1248
700.000000	94.758	117.8960
710.000000	94.775	117.7484
720.000000	94.785	117.7648
730.000000	94.804	117.9363
740.000000	94.842	118.1850
750.000000	94.899	118.4429
762.000000	94.983	118.7230
775.000000	95.087	118.9724
788.000000	95.198	119.1731
800.000000	95.306	119.3267
812.000000	95.418	119.4554
825.000000	95.544	119.5701
838.000000	95.674	119.6579
850.000000	95.798	119.7169
862.000000	95.924	119.7538
875.000000	96.064	119.7728
885.000000	96.172	119.7776
900.000000	96.337	119.7773
912.000000	96.474	119.7691
925.000000	96.627	119.7443
938.000000	96.787	119.6906
950.000000	96.938	119.6032
962.000000	97.091	119.4776
975.000000	97.257	119.3026
988.000000	97.424	119.0964
1000.000000	97.579	118.8824
1015.000000	97.775	118.5796
1030.000000	97.972	118.2289
1044.000000	98.157	117.8528
1060.000000	98.367	117.3672
1075.000000	98.562	116.8637
1090.000000	98.754	116.3171
1106.000000	98.955	115.6906
1120.000000	99.128	115.1091
1138.000000	99.346	114.3216
1150.000000	99.488	113.7739
1172.000000	99.742	112.7274
1180.000000	99.833	112.3349
1206.000000	100.120	111.0214
1220.000000	100.270	110.2922
1241.000000	100.491	109.1689
1250.000000	100.584	108.6758
1265.000000	100.737	107.8372
1280.000000	100.886	106.9755
1315.000000	101.221	104.8648
1320.000000	101.266	104.5521
1340.000000	101.442	103.2774
1360.000000	101.606	101.9761
1380.000000	101.759	100.6660
1400.000000	101.901	99.3593
1430.000000	102.097	97.4203
1450.000000	102.218	96.1472
1475.000000	102.360	94.5776
1500.000000	102.494	93.0251
1525.000000	102.620	91.4904
1550.000000	102.738	89.9707
1575.000000	102.849	88.4625
1600.000000	102.952	86.9651
1625.000000	103.048	85.4790
1650.000000	103.137	84.0067
1675.000000	103.219	82.5474
1700.000000	103.293	81.1018
1725.000000	103.361	79.6716
1750.000000	103.421	78.2568
1775.000000	103.475	76.8593
1800.000000	103.523	75.4803
1825.000000	103.564	74.1210
1850.000000	103.600	72.7822
1875.000000	103.629	71.4644
1900.000000	103.652	70.1690
1925.000000	103.670	68.8978
1950.000000	103.682	67.6519
1975.000000	103.689	66.4324
2000.000000	103.691	65.2399
2030.000000	103.688	63.8436
2060.000000	103.679	62.4823
2090.000000	103.662	61.1557
2120.000000	103.639	59.8670
2140.000000	103.620	59.0327
2180.000000	103.575	57.4333
2200.000000	103.549	56.6627
2240.000000	103.488	55.1729
2270.000000	103.434	54.1143
2300.000000	103.374	53.1201
2330.000000	103.307	52.1993
2360.000000	103.236	51.3526
2400.000000	103.132	50.3509
2430.000000	103.048	49.7190
2470.000000	102.929	49.0827
2500.000000	102.841	48.7959
2540.000000	102.735	48.7133
2580.000000	102.667	48.9881
2620.000000	102.665	49.5443
2650.000000	102.724	50.0230
2690.000000	102.885	50.4944
2720.000000	103.055	50.5563
2760.000000	103.310	50.1123
2800.000000	103.554	49.0891
2850.000000	103.802	47.2532
2900.000000	103.976	45.1242
2950.000000	104.083	42.9872
3000.000000	104.140	40.9729
3040.000000	104.165	39.4509
3070.000000	104.175	38.3610
3110.000000	104.183	36.9678
3150.000000	104.186	35.6310
3200.000000	104.185	34.0207
3250.000000	104.179	32.4618
3300.000000	104.171	30.9414
3350.000000	104.159	29.4496
3400.000000	104.143	27.9775
3450.000000	104.124	26.5185
3500.000000	104.102	25.0679
3550.000000	104.074	23.6222
3600.000000	104.041	22.1781
3650.000000	104.003	20.7316
3700.000000	103.955	19.2781
3750.000000	103.897	17.8282
3820.000000	103.796	15.8066
3870.000000	103.715	14.3554
3950.000000	103.561	12.0654
4000.000000	103.446	10.6720
4060.000000	103.288	9.0613
4120.000000	103.108	7.5446
4180.000000	102.907	6.1512
4250.000000	102.647	4.7152
4310.000000	102.406	3.6720
4370.000000	102.151	2.8236
4440.000000	101.841	2.1010
4500.000000	101.568	1.7238
4550.000000	101.340	1.5865
4620.000000	101.023	1.6719
4680.000000	100.760	2.0046
4750.000000	100.471	2.6913
4820.000000	100.209	3.6852
4870.000000	100.045	4.5659
4940.000000	99.856	6.0003
5000.000000	99.737	7.3746
5080.000000	99.649	9.3295
5150.000000	99.643	11.0576
5220.000000	99.710	12.6897
5300.000000	99.871	14.2711
5380.000000	100.113	15.3475
5450.000000	100.370	15.7130
5520.000000	100.642	15.4293
5600.000000	100.927	14.2615
5700.000000	101.170	11.6780
5800.000000	101.221	8.3286
5900.000000	101.059	4.8920
6000.000000	100.720	1.9301
6080.000000	100.361	0.1014
6150.000000	100.010	-1.0793
6220.000000	99.640	-1.8990
6300.000000	99.210	-2.4522
6400.000000	98.674	-2.6707
6500.000000	98.140	-2.4677
6600.000000	97.598	-1.8707
6700.000000	97.030	-0.7256
6800.000000	96.436	1.2709
6900.000000	95.843	4.5164
7000.000000	95.338	9.4900
7100.000000	95.121	16.2830
7200.000000	95.432	23.8557
7300.000000	96.314	30.2878
7400.000000	97.555	33.9385
7500.000000	98.878	34.1467
7620.000000	100.286	30.1312
7750.000000	101.345	21.8307
7880.000000	101.790	11.5574
8000.000000	101.675	2.3628
8120.000000	101.179	-5.1859
8250.000000	100.401	-10.9612
8380.000000	99.542	-14.4375
8500.000000	98.768	-16.0264
8620.000000	98.055	-16.4305
8750.000000	97.369	-15.8430
8850.000000	96.908	-14.8161
9000.000000	96.328	-12.5543
9120.000000	95.961	-10.2726
9250.000000	95.658	-7.4653
9380.000000	95.449	-4.4265
9500.000000	95.338	-1.5179
9620.000000	95.300	1.3986
9750.000000	95.336	4.4796
9880.000000	95.446	7.3770
10000.000000	95.606	9.7943
10150.000000	95.873	12.3324
10300.000000	96.190	14.1760
10440.000000	96.498	15.1782
10600.000000	96.828	15.4582
10750.000000	97.082	14.9225
10900.000000	97.251	13.7258
11060.000000	97.317	11.9138
11200.000000	97.267	10.0050
11380.000000	97.028	7.3622
11500.000000	96.749	5.7578
11720.000000	96.030	4.0199
11800.000000	95.734	3.9351
12060.000000	94.856	5.3401
12200.000000	94.469	6.6519
12410.000000	93.962	9.2406
12500.000000	93.777	10.6605
12650.000000	93.536	13.4574
12800.000000	93.404	16.7201
13150.000000	93.626	25.4052
13200.000000	93.723	26.6861
13400.000000	94.281	31.6660
13600.000000	95.098	36.0969
13800.000000	96.142	39.5580
14000.000000	97.366	41.6299
14300.000000	99.361	41.0539
14500.000000	100.583	37.5727
14750.000000	101.682	30.0984
15000.000000	102.141	21.2999
15250.000000	102.056	13.8834
15500.000000	101.736	9.0336
15750.000000	101.490	5.9890
16000.000000	101.467	2.9410
16250.000000	101.585	-1.9591
16500.000000	101.599	-9.6595
16750.000000	101.253	-19.5475
17000.000000	100.447	-29.7320
17250.000000	99.287	-38.4542
17500.000000	97.990	-45.3395
17750.000000	96.656	-50.5981
18000.000000	95.308	-53.7600
18250.000000	94.051	-54.4536
18500.000000	93.025	-52.9298
18750.000000	92.341	-49.9041
19000.000000	92.026	-46.5494
19250.000000	91.962	-44.0414
19500.000000	91.951	-43.1167
19750.000000	91.844	-43.7994
