* Measurement data measured by REW V5.20.13
* Source: EXCL: Headset (KM-HIFI-384KHZ), MICROPHONE (Master Volume), 0, volume: 1.000
* Format: 256k Log Swept Sine, 1 sweep at -24.0 dBFS with no timing reference
* Dated: Oct 13, 2023 9:45:34 PM
* REW Settings:
*  C-weighting compensation: Off
*  Target level: 75.0 dB
* Note: ; 
* Measurement: Moondrop Quarks L
* Smoothing: 1/24 octave
* Frequency Step: 1/48 octave
* Start Frequency: 20.000 Hz
*
* Freq(Hz)	SPL(dB)	Phase(degrees)
20.000000	89.403	-152.3406
20.299999	89.418	-152.7808
20.600000	89.433	-153.2135
20.900000	89.448	-153.6389
21.200001	89.463	-154.0572
21.400000	89.473	-154.3323
21.799999	89.494	-154.8733
22.000000	89.504	-155.1387
22.400000	89.524	-155.6574
22.700001	89.539	-156.0335
23.000000	89.552	-156.3964
23.299999	89.566	-156.7456
23.600000	89.579	-157.0821
24.000000	89.596	-157.5131
24.299999	89.609	-157.8253
24.700001	89.624	-158.2282
25.000000	89.635	-158.5206
25.400000	89.649	-158.8974
25.799999	89.662	-159.2610
26.200001	89.674	-159.6160
26.500000	89.682	-159.8790
26.900000	89.693	-160.2271
27.200001	89.700	-160.4859
27.600000	89.709	-160.8266
28.000000	89.717	-161.1613
28.500000	89.727	-161.5737
29.000000	89.737	-161.9837
29.500000	89.746	-162.3917
30.000000	89.755	-162.7919
30.400000	89.762	-163.1021
30.700001	89.768	-163.3285
31.100000	89.776	-163.6242
31.500000	89.784	-163.9156
32.000000	89.794	-164.2748
32.500000	89.803	-164.6227
33.000000	89.810	-164.9502
33.500000	89.818	-165.2559
34.000000	89.827	-165.5496
34.500000	89.837	-165.8446
35.000000	89.846	-166.1460
35.500000	89.853	-166.4482
36.000000	89.857	-166.7427
36.500000	89.860	-167.0262
37.000000	89.863	-167.3014
37.500000	89.866	-167.5721
38.200001	89.870	-167.9462
38.700001	89.873	-168.2087
39.500000	89.878	-168.6199
40.000000	89.881	-168.8711
40.599998	89.884	-169.1658
41.200001	89.888	-169.4534
41.799999	89.892	-169.7353
42.500000	89.896	-170.0582
43.099998	89.899	-170.3283
43.700001	89.902	-170.5915
44.400002	89.904	-170.8913
45.000000	89.906	-171.1438
45.500000	89.907	-171.3516
46.200001	89.909	-171.6385
46.799999	89.909	-171.8810
47.500000	89.910	-172.1594
48.200001	89.909	-172.4307
48.700001	89.909	-172.6195
49.400002	89.910	-172.8789
50.000000	89.910	-173.0984
50.799999	89.911	-173.3876
51.500000	89.911	-173.6379
52.200001	89.911	-173.8869
53.000000	89.910	-174.1661
53.799999	89.908	-174.4333
54.500000	89.907	-174.6601
55.200001	89.905	-174.8838
56.000000	89.903	-175.1333
57.000000	89.900	-175.4411
58.000000	89.896	-175.7480
59.000000	89.891	-176.0392
60.000000	89.887	-176.3291
60.799999	89.884	-176.5649
61.500000	89.880	-176.7655
62.200001	89.876	-176.9594
63.000000	89.872	-177.1769
64.000000	89.867	-177.4455
65.000000	89.862	-177.7111
66.000000	89.857	-177.9705
67.000000	89.851	-178.2246
68.000000	89.844	-178.4746
69.000000	89.838	-178.7182
70.000000	89.831	-178.9589
71.000000	89.824	-179.1970
72.000000	89.816	-179.4318
73.000000	89.809	-179.6637
74.000000	89.800	-179.8905
75.000000	89.792	179.8889
76.199997	89.782	179.6283
77.500000	89.770	179.3514
78.800003	89.759	179.0834
80.000000	89.748	178.8385
81.199997	89.736	178.5995
82.500000	89.723	178.3449
83.800003	89.710	178.0964
85.000000	89.698	177.8688
86.199997	89.685	177.6442
87.500000	89.671	177.4101
88.500000	89.660	177.2324
90.000000	89.644	176.9648
91.199997	89.631	176.7534
92.500000	89.617	176.5280
93.800003	89.602	176.3081
95.000000	89.589	176.1110
96.199997	89.575	175.9166
97.500000	89.560	175.7088
98.800003	89.544	175.5096
100.000000	89.529	175.3314
101.500000	89.511	175.1087
103.000000	89.492	174.8894
104.400002	89.474	174.6874
106.000000	89.453	174.4594
107.500000	89.433	174.2497
109.000000	89.413	174.0432
110.599998	89.392	173.8293
112.000000	89.373	173.6492
113.800003	89.349	173.4226
115.000000	89.332	173.2711
117.199997	89.301	172.9960
118.000000	89.290	172.8985
120.599998	89.252	172.5956
122.000000	89.232	172.4413
124.099998	89.202	172.2108
125.000000	89.189	172.1128
126.500000	89.167	171.9517
128.000000	89.145	171.7931
131.500000	89.094	171.4343
132.000000	89.086	171.3847
134.000000	89.056	171.1908
136.000000	89.025	171.0002
138.000000	88.994	170.8155
140.000000	88.963	170.6348
143.000000	88.917	170.3736
145.000000	88.885	170.2103
147.500000	88.846	170.0117
150.000000	88.805	169.8201
152.500000	88.765	169.6325
155.000000	88.725	169.4498
157.500000	88.684	169.2720
160.000000	88.642	169.0997
162.500000	88.601	168.9362
165.000000	88.560	168.7863
167.500000	88.518	168.6479
170.000000	88.475	168.5148
172.500000	88.432	168.3844
175.000000	88.389	168.2594
177.500000	88.346	168.1415
180.000000	88.303	168.0306
182.500000	88.259	167.9236
185.000000	88.214	167.8231
187.500000	88.170	167.7306
190.000000	88.125	167.6455
192.500000	88.080	167.5683
195.000000	88.034	167.4958
197.500000	87.988	167.4333
200.000000	87.941	167.3828
203.000000	87.884	167.3441
206.000000	87.826	167.3234
209.000000	87.768	167.3192
212.000000	87.709	167.3257
214.000000	87.671	167.3424
218.000000	87.596	167.4073
220.000000	87.559	167.4656
224.000000	87.490	167.6028
227.000000	87.441	167.7290
230.000000	87.396	167.8562
233.000000	87.352	167.9909
236.000000	87.314	168.1267
240.000000	87.265	168.2700
243.000000	87.226	168.3842
247.000000	87.174	168.5302
250.000000	87.130	168.6363
254.000000	87.064	168.8509
258.000000	87.002	169.1556
262.000000	86.941	169.5543
265.000000	86.901	169.9494
269.000000	86.868	170.6078
272.000000	86.868	171.1615
276.000000	86.911	171.8872
280.000000	87.003	172.4343
285.000000	87.158	172.5790
290.000000	87.289	172.0527
295.000000	87.346	171.1649
300.000000	87.331	170.2746
304.000000	87.284	169.6824
307.000000	87.238	169.3242
311.000000	87.168	168.9558
315.000000	87.096	168.6935
320.000000	87.007	168.4830
325.000000	86.920	168.3752
330.000000	86.836	168.3275
335.000000	86.755	168.3173
340.000000	86.678	168.3424
345.000000	86.603	168.4022
350.000000	86.532	168.4937
355.000000	86.463	168.5994
360.000000	86.397	168.7156
365.000000	86.332	168.8469
370.000000	86.270	168.9911
375.000000	86.209	169.1466
382.000000	86.127	169.3801
387.000000	86.070	169.5544
395.000000	85.982	169.8515
400.000000	85.929	170.0460
406.000000	85.867	170.2881
412.000000	85.807	170.5339
418.000000	85.748	170.7861
425.000000	85.681	171.0955
431.000000	85.626	171.3706
437.000000	85.571	171.6507
444.000000	85.509	171.9801
450.000000	85.458	172.2703
455.000000	85.415	172.5180
462.000000	85.358	172.8722
468.000000	85.309	173.1831
475.000000	85.254	173.5510
482.000000	85.200	173.9208
487.000000	85.163	174.1892
494.000000	85.111	174.5726
500.000000	85.068	174.9056
508.000000	85.014	175.3580
515.000000	84.967	175.7600
522.000000	84.922	176.1657
530.000000	84.873	176.6345
538.000000	84.825	177.1065
545.000000	84.784	177.5242
552.000000	84.745	177.9480
560.000000	84.702	178.4374
570.000000	84.650	179.0572
580.000000	84.601	179.6845
590.000000	84.554	-179.6807
600.000000	84.510	-179.0313
608.000000	84.476	-178.5058
615.000000	84.448	-178.0434
622.000000	84.421	-177.5779
630.000000	84.392	-177.0422
640.000000	84.357	-176.3670
650.000000	84.326	-175.6800
660.000000	84.297	-174.9805
670.000000	84.271	-174.2777
680.000000	84.248	-173.5743
690.000000	84.227	-172.8638
700.000000	84.210	-172.1476
710.000000	84.196	-171.4274
720.000000	84.183	-170.7014
730.000000	84.174	-169.9685
740.000000	84.168	-169.2327
750.000000	84.166	-168.4964
762.000000	84.167	-167.6118
775.000000	84.174	-166.6508
788.000000	84.186	-165.6867
800.000000	84.203	-164.8019
812.000000	84.224	-163.9194
825.000000	84.253	-162.9664
838.000000	84.287	-162.0222
850.000000	84.323	-161.1574
862.000000	84.364	-160.3019
875.000000	84.414	-159.3892
885.000000	84.457	-158.7015
900.000000	84.526	-157.6920
912.000000	84.586	-156.9040
925.000000	84.656	-156.0770
938.000000	84.731	-155.2755
950.000000	84.804	-154.5588
962.000000	84.879	-153.8683
975.000000	84.965	-153.1547
988.000000	85.052	-152.4759
1000.000000	85.136	-151.8783
1015.000000	85.243	-151.1718
1030.000000	85.353	-150.5148
1044.000000	85.455	-149.9446
1060.000000	85.573	-149.3384
1075.000000	85.684	-148.8142
1090.000000	85.794	-148.3346
1106.000000	85.910	-147.8650
1120.000000	86.009	-147.4838
1138.000000	86.134	-147.0342
1150.000000	86.216	-146.7586
1172.000000	86.362	-146.2963
1180.000000	86.413	-146.1393
1206.000000	86.575	-145.6619
1220.000000	86.659	-145.4215
1241.000000	86.781	-145.0777
1250.000000	86.831	-144.9362
1265.000000	86.914	-144.7052
1280.000000	86.994	-144.4776
1315.000000	87.175	-143.9558
1320.000000	87.200	-143.8818
1340.000000	87.299	-143.5870
1360.000000	87.396	-143.2890
1380.000000	87.491	-142.9866
1400.000000	87.585	-142.6806
1430.000000	87.727	-142.2150
1450.000000	87.822	-141.9005
1475.000000	87.941	-141.5028
1500.000000	88.062	-141.1024
1525.000000	88.185	-140.7059
1550.000000	88.313	-140.3200
1575.000000	88.445	-139.9598
1600.000000	88.583	-139.6557
1625.000000	88.721	-139.4614
1650.000000	88.839	-139.4091
1675.000000	88.912	-139.3010
1700.000000	88.973	-138.8388
1725.000000	89.066	-138.1342
1750.000000	89.194	-137.3972
1775.000000	89.350	-136.7407
1800.000000	89.518	-136.2096
1825.000000	89.689	-135.7737
1850.000000	89.861	-135.3985
1875.000000	90.033	-135.0657
1900.000000	90.208	-134.7646
1925.000000	90.385	-134.4906
1950.000000	90.564	-134.2451
1975.000000	90.747	-134.0307
2000.000000	90.934	-133.8474
2030.000000	91.162	-133.6697
2060.000000	91.394	-133.5419
2090.000000	91.632	-133.4686
2120.000000	91.875	-133.4525
2140.000000	92.039	-133.4752
2180.000000	92.374	-133.6078
2200.000000	92.544	-133.7203
2240.000000	92.889	-134.0438
2270.000000	93.152	-134.3787
2300.000000	93.418	-134.7989
2330.000000	93.686	-135.3088
2360.000000	93.955	-135.9124
2400.000000	94.318	-136.8675
2430.000000	94.592	-137.7178
2470.000000	94.955	-139.0371
2500.000000	95.221	-140.1491
2540.000000	95.562	-141.8137
2580.000000	95.888	-143.7031
2620.000000	96.196	-145.8128
2650.000000	96.411	-147.5368
2690.000000	96.674	-150.0155
2720.000000	96.850	-152.0004
2760.000000	97.051	-154.7949
2800.000000	97.212	-157.7301
2850.000000	97.351	-161.5427
2900.000000	97.415	-165.4363
2950.000000	97.403	-169.3198
3000.000000	97.317	-173.1021
3040.000000	97.197	-175.9971
3070.000000	97.079	-178.0658
3110.000000	96.888	179.3410
3150.000000	96.664	176.9676
3200.000000	96.343	174.3486
3250.000000	95.991	172.1494
3300.000000	95.619	170.3941
3350.000000	95.241	169.0933
3400.000000	94.875	168.2280
3450.000000	94.537	167.7338
3500.000000	94.238	167.4957
3550.000000	93.982	167.3481
3600.000000	93.758	167.1707
3650.000000	93.548	166.9582
3700.000000	93.340	166.7555
3750.000000	93.130	166.6146
3820.000000	92.841	166.5697
3870.000000	92.643	166.6498
3950.000000	92.343	166.9531
4000.000000	92.168	167.2383
4060.000000	91.974	167.6631
4120.000000	91.797	168.1586
4180.000000	91.637	168.7076
4250.000000	91.471	169.3973
4310.000000	91.348	170.0135
4370.000000	91.240	170.6365
4440.000000	91.134	171.3510
4500.000000	91.058	171.9337
4550.000000	91.004	172.3848
4620.000000	90.939	172.9450
4680.000000	90.887	173.3491
4750.000000	90.825	173.7367
4820.000000	90.749	174.0801
4870.000000	90.683	174.3521
4940.000000	90.580	174.8636
5000.000000	90.490	175.4872
5080.000000	90.397	176.5952
5150.000000	90.361	177.7211
5220.000000	90.373	178.8473
5300.000000	90.436	179.9982
5380.000000	90.535	-179.0632
5450.000000	90.642	-178.4302
5520.000000	90.761	-177.9767
5600.000000	90.903	-177.6724
5700.000000	91.081	-177.5908
5800.000000	91.248	-177.8027
5900.000000	91.392	-178.2309
6000.000000	91.511	-178.7814
6080.000000	91.591	-179.2343
6150.000000	91.658	-179.6043
6220.000000	91.730	-179.9641
6300.000000	91.824	179.5783
6400.000000	91.956	178.8308
6500.000000	92.090	177.8061
6600.000000	92.209	176.5090
6700.000000	92.300	174.9875
6800.000000	92.356	173.3000
6900.000000	92.373	171.5238
7000.000000	92.353	169.7489
7100.000000	92.305	168.0301
7200.000000	92.235	166.3539
7300.000000	92.143	164.7203
7400.000000	92.027	163.1758
7500.000000	91.893	161.7802
7620.000000	91.724	160.3329
7750.000000	91.554	159.0168
7880.000000	91.422	157.8558
8000.000000	91.348	156.7357
8120.000000	91.320	155.3406
8250.000000	91.317	153.2619
8380.000000	91.293	150.4263
8500.000000	91.200	147.1578
8620.000000	90.996	143.4655
8750.000000	90.621	139.3675
8850.000000	90.226	136.4193
9000.000000	89.489	132.7040
9120.000000	88.812	130.5295
9250.000000	88.036	129.0528
9380.000000	87.264	128.4024
9500.000000	86.585	128.3108
9620.000000	85.937	128.4966
9750.000000	85.252	128.9269
9880.000000	84.570	129.6463
10000.000000	83.946	130.6155
10150.000000	83.184	132.2323
10300.000000	82.453	134.2485
10440.000000	81.802	136.4609
10600.000000	81.100	139.3351
10750.000000	80.489	142.3033
10900.000000	79.921	145.4792
11060.000000	79.363	149.0547
11200.000000	78.913	152.3135
11380.000000	78.383	156.6538
11500.000000	78.060	159.6254
11720.000000	77.531	165.1861
11800.000000	77.360	167.2366
12060.000000	76.881	173.9626
12200.000000	76.672	177.6019
12410.000000	76.422	-176.9402
12500.000000	76.338	-174.6110
12650.000000	76.230	-170.7589
12800.000000	76.158	-166.9573
13150.000000	76.131	-158.3549
13200.000000	76.143	-157.1674
13400.000000	76.237	-152.5579
13600.000000	76.400	-148.2123
13800.000000	76.632	-144.1806
14000.000000	76.936	-140.5023
14300.000000	77.543	-135.7455
14500.000000	78.060	-133.3024
14750.000000	78.811	-131.4731
15000.000000	79.623	-131.3778
15250.000000	80.407	-133.2919
15500.000000	81.045	-137.2643
15750.000000	81.414	-142.8777
16000.000000	81.430	-149.1574
16250.000000	81.098	-154.8994
16500.000000	80.504	-159.2203
16750.000000	79.766	-161.8006
17000.000000	78.993	-162.7375
17250.000000	78.277	-162.3414
17500.000000	77.673	-161.1683
17750.000000	77.166	-159.6378
18000.000000	76.738	-157.9991
18250.000000	76.355	-156.4736
18500.000000	75.974	-155.1702
18750.000000	75.551	-154.0693
19000.000000	75.035	-152.9816
19250.000000	74.384	-151.5988
19500.000000	73.573	-149.6394
19750.000000	72.669	-147.2430
