* Measurement data measured by REW V5.20.13
* Source: EXCL: Headset (KM-HIFI-384KHZ), MICROPHONE (Master Volume), 0, volume: 1.000
* Format: 256k Log Swept Sine, 1 sweep at -24.0 dBFS with no timing reference
* Dated: Oct 13, 2023 9:43:44 PM
* REW Settings:
*  C-weighting compensation: Off
*  Target level: 75.0 dB
* Note: ; 
* Measurement: Moondrop Quarks R
* Smoothing: 1/24 octave
* Frequency Step: 1/48 octave
* Start Frequency: 20.000 Hz
*
* Freq(Hz)	SPL(dB)	Phase(degrees)
20.000000	88.488	-131.8345
20.299999	88.523	-132.4878
20.600000	88.559	-133.1084
20.900000	88.595	-133.7055
21.200001	88.632	-134.2859
21.400000	88.656	-134.6635
21.799999	88.705	-135.3936
22.000000	88.730	-135.7462
22.400000	88.782	-136.4324
22.700001	88.824	-136.9432
23.000000	88.867	-137.4640
23.299999	88.908	-137.9988
23.600000	88.946	-138.5416
24.000000	88.989	-139.2566
24.299999	89.017	-139.7671
24.700001	89.052	-140.4012
25.000000	89.080	-140.8488
25.400000	89.118	-141.4330
25.799999	89.158	-142.0311
26.200001	89.194	-142.6479
26.500000	89.215	-143.1078
26.900000	89.238	-143.6905
27.200001	89.254	-144.0918
27.600000	89.276	-144.5825
28.000000	89.304	-145.0507
28.500000	89.345	-145.6567
29.000000	89.384	-146.3051
29.500000	89.415	-146.9598
30.000000	89.441	-147.5721
30.400000	89.461	-148.0244
30.700001	89.479	-148.3502
31.100000	89.504	-148.7817
31.500000	89.529	-149.2190
32.000000	89.560	-149.7724
32.500000	89.586	-150.3192
33.000000	89.610	-150.8471
33.500000	89.633	-151.3554
34.000000	89.655	-151.8529
34.500000	89.675	-152.3476
35.000000	89.691	-152.8344
35.500000	89.703	-153.2930
36.000000	89.714	-153.7086
36.500000	89.730	-154.0945
37.000000	89.750	-154.4891
37.500000	89.771	-154.9169
38.200001	89.792	-155.5373
38.700001	89.801	-155.9487
39.500000	89.820	-156.5468
40.000000	89.834	-156.9237
40.599998	89.849	-157.3873
41.200001	89.860	-157.8276
41.799999	89.871	-158.2329
42.500000	89.889	-158.7038
43.099998	89.903	-159.1281
43.700001	89.912	-159.5419
44.400002	89.920	-159.9778
45.000000	89.932	-160.3287
45.500000	89.944	-160.6302
46.200001	89.959	-161.0730
46.799999	89.969	-161.4520
47.500000	89.980	-161.8758
48.200001	89.991	-162.2955
48.700001	89.998	-162.6036
49.400002	90.004	-163.0343
50.000000	90.005	-163.3743
50.799999	90.009	-163.7772
51.500000	90.018	-164.1220
52.200001	90.028	-164.4831
53.000000	90.039	-164.9078
53.799999	90.047	-165.3413
54.500000	90.048	-165.7046
55.200001	90.049	-166.0283
56.000000	90.053	-166.3762
57.000000	90.057	-166.8103
58.000000	90.063	-167.2206
59.000000	90.072	-167.6573
60.000000	90.074	-168.1100
60.799999	90.074	-168.4633
61.500000	90.072	-168.7590
62.200001	90.071	-169.0381
63.000000	90.073	-169.3644
64.000000	90.072	-169.7873
65.000000	90.069	-170.1600
66.000000	90.071	-170.5242
67.000000	90.070	-170.8924
68.000000	90.069	-171.2284
69.000000	90.070	-171.5901
70.000000	90.063	-171.9464
71.000000	90.058	-172.2598
72.000000	90.056	-172.5928
73.000000	90.050	-172.9243
74.000000	90.045	-173.2301
75.000000	90.042	-173.5526
76.199997	90.033	-173.9277
77.500000	90.027	-174.2924
78.800003	90.022	-174.6917
80.000000	90.012	-175.0404
81.199997	90.006	-175.3576
82.500000	89.998	-175.7278
83.800003	89.985	-176.0661
85.000000	89.977	-176.3525
86.199997	89.969	-176.6719
87.500000	89.952	-177.0130
88.500000	89.940	-177.2441
90.000000	89.928	-177.5977
91.199997	89.918	-177.9100
92.500000	89.904	-178.2284
93.800003	89.892	-178.5066
95.000000	89.886	-178.7750
96.199997	89.877	-179.0727
97.500000	89.860	-179.3755
98.800003	89.842	-179.6219
100.000000	89.832	-179.8372
101.500000	89.823	179.8462
103.000000	89.805	179.5045
104.400002	89.784	179.2238
106.000000	89.763	178.9545
107.500000	89.750	178.6942
109.000000	89.737	178.3892
110.599998	89.715	178.0571
112.000000	89.691	177.8045
113.800003	89.664	177.5291
115.000000	89.650	177.3509
117.199997	89.629	177.0012
118.000000	89.622	176.8621
120.599998	89.589	176.3964
122.000000	89.567	176.1624
124.099998	89.533	175.8374
125.000000	89.518	175.7061
126.500000	89.494	175.4935
128.000000	89.470	175.2878
131.500000	89.416	174.8427
132.000000	89.409	174.7815
134.000000	89.383	174.5342
136.000000	89.355	174.2847
138.000000	89.325	174.0482
140.000000	89.293	173.8146
143.000000	89.246	173.4454
145.000000	89.214	173.1989
147.500000	89.175	172.9039
150.000000	89.136	172.6157
152.500000	89.099	172.3479
155.000000	89.065	172.1076
157.500000	89.025	171.8962
160.000000	88.978	171.6755
162.500000	88.932	171.4341
165.000000	88.892	171.1967
167.500000	88.851	170.9968
170.000000	88.805	170.8264
172.500000	88.758	170.6426
175.000000	88.712	170.4444
177.500000	88.668	170.2647
180.000000	88.621	170.1054
182.500000	88.574	169.9602
185.000000	88.528	169.8181
187.500000	88.481	169.6823
190.000000	88.433	169.5500
192.500000	88.383	169.4240
195.000000	88.334	169.3131
197.500000	88.284	169.2191
200.000000	88.232	169.1382
203.000000	88.166	169.0638
206.000000	88.103	169.0033
209.000000	88.040	168.9443
212.000000	87.970	168.9112
214.000000	87.921	168.9109
218.000000	87.827	168.9574
220.000000	87.781	169.0023
224.000000	87.685	169.1391
227.000000	87.610	169.2914
230.000000	87.532	169.5112
233.000000	87.455	169.8149
236.000000	87.383	170.2159
240.000000	87.301	170.9329
243.000000	87.257	171.6144
247.000000	87.238	172.7021
250.000000	87.270	173.5831
254.000000	87.388	174.6278
258.000000	87.574	175.2069
262.000000	87.779	175.1039
265.000000	87.908	174.6041
269.000000	88.017	173.5869
272.000000	88.050	172.7447
276.000000	88.044	171.7032
280.000000	87.999	170.8347
285.000000	87.913	170.0046
290.000000	87.811	169.4144
295.000000	87.708	168.9893
300.000000	87.607	168.6936
304.000000	87.529	168.5274
307.000000	87.473	168.4336
311.000000	87.401	168.3398
315.000000	87.331	168.2742
320.000000	87.246	168.2214
325.000000	87.165	168.1999
330.000000	87.085	168.2087
335.000000	87.009	168.2400
340.000000	86.935	168.2978
345.000000	86.865	168.3752
350.000000	86.798	168.4667
355.000000	86.732	168.5662
360.000000	86.666	168.6663
365.000000	86.602	168.7770
370.000000	86.538	168.9035
375.000000	86.477	169.0394
382.000000	86.393	169.2484
387.000000	86.336	169.4059
395.000000	86.246	169.6669
400.000000	86.191	169.8417
406.000000	86.127	170.0659
412.000000	86.064	170.2917
418.000000	86.004	170.5197
425.000000	85.933	170.7950
431.000000	85.873	171.0362
437.000000	85.816	171.2947
444.000000	85.752	171.6099
450.000000	85.697	171.8849
455.000000	85.652	172.1182
462.000000	85.590	172.4458
468.000000	85.538	172.7290
475.000000	85.479	173.0726
482.000000	85.422	173.4224
487.000000	85.382	173.6756
494.000000	85.328	174.0325
500.000000	85.282	174.3428
508.000000	85.225	174.7747
515.000000	85.176	175.1635
522.000000	85.128	175.5517
530.000000	85.072	175.9984
538.000000	85.018	176.4556
545.000000	84.974	176.8649
552.000000	84.932	177.2766
560.000000	84.885	177.7470
570.000000	84.827	178.3614
580.000000	84.772	178.9793
590.000000	84.719	179.5982
600.000000	84.671	-179.7631
608.000000	84.634	-179.2464
615.000000	84.603	-178.7900
622.000000	84.573	-178.3325
630.000000	84.540	-177.8093
640.000000	84.500	-177.1493
650.000000	84.463	-176.4667
660.000000	84.430	-175.7812
670.000000	84.400	-175.0873
680.000000	84.371	-174.3822
690.000000	84.346	-173.6862
700.000000	84.323	-172.9863
710.000000	84.303	-172.2712
720.000000	84.287	-171.5491
730.000000	84.274	-170.8251
740.000000	84.264	-170.0908
750.000000	84.258	-169.3518
762.000000	84.253	-168.4640
775.000000	84.252	-167.5004
788.000000	84.257	-166.5332
800.000000	84.270	-165.6345
812.000000	84.287	-164.7487
825.000000	84.311	-163.8008
838.000000	84.339	-162.8486
850.000000	84.369	-161.9705
862.000000	84.406	-161.1080
875.000000	84.451	-160.1954
885.000000	84.489	-159.5072
900.000000	84.552	-158.4951
912.000000	84.608	-157.7003
925.000000	84.674	-156.8569
938.000000	84.743	-156.0415
950.000000	84.811	-155.3158
962.000000	84.882	-154.6150
975.000000	84.964	-153.8874
988.000000	85.048	-153.1943
1000.000000	85.128	-152.5841
1015.000000	85.229	-151.8634
1030.000000	85.333	-151.1858
1044.000000	85.432	-150.5968
1060.000000	85.545	-149.9768
1075.000000	85.652	-149.4332
1090.000000	85.758	-148.9307
1106.000000	85.869	-148.4383
1120.000000	85.965	-148.0404
1138.000000	86.085	-147.5720
1150.000000	86.164	-147.2814
1172.000000	86.304	-146.7789
1180.000000	86.354	-146.6082
1206.000000	86.509	-146.1015
1220.000000	86.589	-145.8462
1241.000000	86.705	-145.4689
1250.000000	86.753	-145.3115
1265.000000	86.832	-145.0611
1280.000000	86.907	-144.8195
1315.000000	87.079	-144.2384
1320.000000	87.103	-144.1554
1340.000000	87.197	-143.8246
1360.000000	87.289	-143.4900
1380.000000	87.379	-143.1539
1400.000000	87.468	-142.8125
1430.000000	87.601	-142.2844
1450.000000	87.691	-141.9375
1475.000000	87.803	-141.4932
1500.000000	87.914	-141.0262
1525.000000	88.027	-140.5623
1550.000000	88.142	-140.0979
1575.000000	88.259	-139.6244
1600.000000	88.381	-139.1441
1625.000000	88.506	-138.6610
1650.000000	88.637	-138.1945
1675.000000	88.774	-137.7767
1700.000000	88.912	-137.4147
1725.000000	89.040	-137.0988
1750.000000	89.153	-136.7303
1775.000000	89.269	-136.1970
1800.000000	89.410	-135.6074
1825.000000	89.567	-135.0956
1850.000000	89.730	-134.6600
1875.000000	89.895	-134.2641
1900.000000	90.062	-133.8940
1925.000000	90.233	-133.5471
1950.000000	90.407	-133.2214
1975.000000	90.585	-132.9196
2000.000000	90.768	-132.6448
2030.000000	90.993	-132.3555
2060.000000	91.223	-132.1138
2090.000000	91.459	-131.9223
2120.000000	91.701	-131.7842
2140.000000	91.866	-131.7230
2180.000000	92.201	-131.6775
2200.000000	92.372	-131.6959
2240.000000	92.722	-131.8227
2270.000000	92.990	-132.0009
2300.000000	93.263	-132.2561
2330.000000	93.541	-132.5937
2360.000000	93.823	-133.0212
2400.000000	94.205	-133.7428
2430.000000	94.494	-134.4058
2470.000000	94.883	-135.4681
2500.000000	95.176	-136.4083
2540.000000	95.565	-137.8681
2580.000000	95.948	-139.5842
2620.000000	96.321	-141.5746
2650.000000	96.591	-143.2591
2690.000000	96.930	-145.7686
2720.000000	97.164	-147.8496
2760.000000	97.442	-150.8809
2800.000000	97.671	-154.1794
2850.000000	97.872	-158.6019
2900.000000	97.966	-163.2152
2950.000000	97.945	-167.8266
3000.000000	97.813	-172.2298
3040.000000	97.639	-175.4858
3070.000000	97.474	-177.7291
3110.000000	97.219	179.5734
3150.000000	96.934	177.2287
3200.000000	96.551	174.7974
3250.000000	96.157	172.9094
3300.000000	95.768	171.5303
3350.000000	95.404	170.5963
3400.000000	95.079	169.9878
3450.000000	94.798	169.5464
3500.000000	94.550	169.1374
3550.000000	94.319	168.7219
3600.000000	94.092	168.3463
3650.000000	93.871	168.0605
3700.000000	93.660	167.8552
3750.000000	93.460	167.6964
3820.000000	93.190	167.5262
3870.000000	93.000	167.4592
3950.000000	92.702	167.4964
4000.000000	92.523	167.6180
4060.000000	92.318	167.8484
4120.000000	92.123	168.1462
4180.000000	91.939	168.5004
4250.000000	91.731	168.9956
4310.000000	91.561	169.5126
4370.000000	91.402	170.1323
4440.000000	91.241	170.9675
4500.000000	91.127	171.7208
4550.000000	91.050	172.3264
4620.000000	90.957	173.0982
4680.000000	90.883	173.6802
4750.000000	90.791	174.3063
4820.000000	90.686	174.9865
4870.000000	90.606	175.5748
4940.000000	90.505	176.5938
5000.000000	90.443	177.6331
5080.000000	90.413	179.1362
5150.000000	90.437	-179.5804
5220.000000	90.500	-178.4253
5300.000000	90.604	-177.3065
5380.000000	90.732	-176.4005
5450.000000	90.857	-175.7684
5520.000000	90.992	-175.2713
5600.000000	91.155	-174.8576
5700.000000	91.375	-174.5873
5800.000000	91.607	-174.6322
5900.000000	91.837	-175.0034
6000.000000	92.056	-175.6740
6080.000000	92.219	-176.4079
6150.000000	92.350	-177.1862
6220.000000	92.468	-178.0853
6300.000000	92.582	-179.2372
6400.000000	92.688	179.2128
6500.000000	92.763	177.6317
6600.000000	92.818	176.0195
6700.000000	92.855	174.3521
6800.000000	92.872	172.6064
6900.000000	92.865	170.7942
7000.000000	92.830	168.9467
7100.000000	92.768	167.1021
7200.000000	92.679	165.2977
7300.000000	92.566	163.5592
7400.000000	92.431	161.9113
7500.000000	92.279	160.3755
7620.000000	92.080	158.7313
7750.000000	91.862	157.2140
7880.000000	91.667	155.9129
8000.000000	91.521	154.7742
8120.000000	91.416	153.5371
8250.000000	91.345	151.8498
8380.000000	91.288	149.5443
8500.000000	91.200	146.7506
8620.000000	91.025	143.4035
8750.000000	90.692	139.4716
8850.000000	90.324	136.5356
9000.000000	89.611	132.7723
9120.000000	88.948	130.5444
9250.000000	88.188	128.9424
9380.000000	87.422	128.0425
9500.000000	86.719	127.6868
9620.000000	86.018	127.7508
9750.000000	85.268	128.2800
9880.000000	84.535	129.2615
10000.000000	83.880	130.5240
10150.000000	83.097	132.5267
10300.000000	82.360	134.9238
10440.000000	81.717	137.4430
10600.000000	81.033	140.6013
10750.000000	80.440	143.7907
10900.000000	79.892	147.1621
11060.000000	79.356	150.9273
11200.000000	78.925	154.3268
11380.000000	78.424	158.8105
11500.000000	78.121	161.8573
11720.000000	77.630	167.5328
11800.000000	77.473	169.6127
12060.000000	77.039	176.4084
12200.000000	76.852	-179.9261
12410.000000	76.638	-174.4513
12500.000000	76.571	-172.1277
12650.000000	76.489	-168.2940
12800.000000	76.442	-164.5171
13150.000000	76.478	-156.0260
13200.000000	76.500	-154.8601
13400.000000	76.634	-150.3506
13600.000000	76.841	-146.1339
13800.000000	77.123	-142.2763
14000.000000	77.477	-138.8267
14300.000000	78.162	-134.6100
14500.000000	78.726	-132.6578
14750.000000	79.519	-131.5612
15000.000000	80.350	-132.3148
15250.000000	81.115	-135.2308
15500.000000	81.675	-140.2464
15750.000000	81.903	-146.6316
16000.000000	81.749	-153.1477
16250.000000	81.262	-158.5706
16500.000000	80.561	-162.2161
16750.000000	79.780	-164.0457
17000.000000	79.022	-164.3929
17250.000000	78.343	-163.6931
17500.000000	77.774	-162.3105
17750.000000	77.340	-160.7637
18000.000000	76.977	-159.6633
18250.000000	76.589	-158.9495
18500.000000	76.135	-158.4558
18750.000000	75.576	-157.9724
19000.000000	74.882	-157.1461
19250.000000	74.038	-155.5833
19500.000000	73.046	-153.0502
19750.000000	71.998	-149.9234
