* Measurement data measured by REW V5.20.13
* Source: EXCL: Headset (KM-HIFI-384KHZ), MICROPHONE (Master Volume), 0, volume: 1.000
* Format: 256k Log Swept Sine, 1 sweep at -24.0 dBFS with no timing reference
* Dated: Oct 13, 2023 10:20:02 PM
* REW Settings:
*  C-weighting compensation: Off
*  Target level: 75.0 dB
* Note: ; 
* Measurement: Moondrop Chu S2 L
* Smoothing: 1/24 octave
* Frequency Step: 1/48 octave
* Start Frequency: 20.000 Hz
*
* Freq(Hz)	SPL(dB)	Phase(degrees)
20.000000	98.918	-156.0062
20.299999	98.904	-156.7399
20.600000	98.888	-157.4364
20.900000	98.872	-158.1092
21.200001	98.856	-158.7790
21.400000	98.843	-159.2333
21.799999	98.807	-160.1584
22.000000	98.781	-160.6195
22.400000	98.710	-161.4964
22.700001	98.639	-162.0616
23.000000	98.555	-162.4929
23.299999	98.467	-162.7505
23.600000	98.382	-162.8137
24.000000	98.293	-162.5968
24.299999	98.261	-162.2566
24.700001	98.282	-161.7013
25.000000	98.349	-161.3526
25.400000	98.495	-161.1788
25.799999	98.672	-161.4985
26.200001	98.837	-162.3193
26.500000	98.931	-163.1685
26.900000	99.010	-164.4362
27.200001	99.037	-165.3683
27.600000	99.047	-166.4910
28.000000	99.044	-167.4688
28.500000	99.037	-168.5728
29.000000	99.024	-169.6179
29.500000	99.000	-170.5758
30.000000	98.973	-171.4096
30.400000	98.957	-172.0213
30.700001	98.948	-172.4803
31.100000	98.935	-173.1139
31.500000	98.915	-173.7541
32.000000	98.878	-174.4982
32.500000	98.838	-175.1393
33.000000	98.806	-175.7203
33.500000	98.780	-176.3083
34.000000	98.752	-176.9186
34.500000	98.719	-177.5153
35.000000	98.684	-178.0744
35.500000	98.652	-178.6078
36.000000	98.621	-179.1368
36.500000	98.590	-179.6628
37.000000	98.557	179.8273
37.500000	98.522	179.3417
38.200001	98.476	178.6982
38.700001	98.443	178.2563
39.500000	98.392	177.5673
40.000000	98.359	177.1479
40.599998	98.318	176.6603
41.200001	98.277	176.1881
41.799999	98.236	175.7239
42.500000	98.187	175.1957
43.099998	98.144	174.7657
43.700001	98.103	174.3525
44.400002	98.057	173.8729
45.000000	98.018	173.4606
45.500000	97.985	173.1241
46.200001	97.939	172.6692
46.799999	97.900	172.2904
47.500000	97.852	171.8634
48.200001	97.805	171.4641
48.700001	97.771	171.1947
49.400002	97.726	170.8243
50.000000	97.688	170.5047
50.799999	97.634	170.0862
51.500000	97.586	169.7356
52.200001	97.539	169.3933
53.000000	97.484	169.0105
53.799999	97.428	168.6449
54.500000	97.381	168.3366
55.200001	97.333	168.0369
56.000000	97.279	167.7100
57.000000	97.212	167.3231
58.000000	97.146	166.9512
59.000000	97.080	166.6003
60.000000	97.014	166.2723
60.799999	96.963	166.0230
61.500000	96.918	165.8154
62.200001	96.875	165.6180
63.000000	96.828	165.3972
64.000000	96.772	165.1144
65.000000	96.715	164.8256
66.000000	96.656	164.5401
67.000000	96.597	164.2707
68.000000	96.537	164.0142
69.000000	96.477	163.7654
70.000000	96.417	163.5319
71.000000	96.358	163.3058
72.000000	96.298	163.0887
73.000000	96.239	162.8842
74.000000	96.180	162.6847
75.000000	96.121	162.4943
76.199997	96.051	162.2839
77.500000	95.976	162.0716
78.800003	95.901	161.8669
80.000000	95.832	161.6937
81.199997	95.764	161.5366
82.500000	95.691	161.3705
83.800003	95.617	161.2109
85.000000	95.549	161.0859
86.199997	95.484	160.9671
87.500000	95.413	160.8301
88.500000	95.356	160.7364
90.000000	95.273	160.6171
91.199997	95.207	160.5248
92.500000	95.134	160.4355
93.800003	95.061	160.3519
95.000000	94.994	160.2841
96.199997	94.926	160.2274
97.500000	94.851	160.1770
98.800003	94.776	160.1399
100.000000	94.706	160.1158
101.500000	94.617	160.0988
103.000000	94.525	160.1019
104.400002	94.437	160.1264
106.000000	94.332	160.1949
107.500000	94.230	160.3026
109.000000	94.124	160.4557
110.599998	94.004	160.6873
112.000000	93.894	160.9799
113.800003	93.752	161.5288
115.000000	93.659	162.0166
117.199997	93.504	163.2279
118.000000	93.460	163.7815
120.599998	93.406	165.8523
122.000000	93.445	166.9905
124.099998	93.587	168.5209
125.000000	93.674	169.0482
126.500000	93.844	169.6652
128.000000	94.027	169.8667
131.500000	94.364	168.7100
132.000000	94.393	168.4250
134.000000	94.460	167.2233
136.000000	94.461	166.1223
138.000000	94.418	165.2639
140.000000	94.354	164.6216
143.000000	94.241	163.9229
145.000000	94.164	163.5948
147.500000	94.069	163.3196
150.000000	93.979	163.1410
152.500000	93.892	163.0239
155.000000	93.810	162.9553
157.500000	93.731	162.9294
160.000000	93.657	162.9420
162.500000	93.586	162.9730
165.000000	93.519	163.0161
167.500000	93.454	163.0765
170.000000	93.392	163.1513
172.500000	93.333	163.2375
175.000000	93.276	163.3331
177.500000	93.220	163.4384
180.000000	93.166	163.5506
182.500000	93.113	163.6664
185.000000	93.063	163.7881
187.500000	93.014	163.9164
190.000000	92.968	164.0486
192.500000	92.922	164.1823
195.000000	92.878	164.3166
197.500000	92.834	164.4529
200.000000	92.792	164.5927
203.000000	92.743	164.7641
206.000000	92.695	164.9406
209.000000	92.649	165.1188
212.000000	92.604	165.2963
214.000000	92.575	165.4157
218.000000	92.518	165.6576
220.000000	92.490	165.7805
224.000000	92.437	166.0287
227.000000	92.398	166.2137
230.000000	92.360	166.3971
233.000000	92.324	166.5822
236.000000	92.289	166.7693
240.000000	92.242	167.0226
243.000000	92.208	167.2168
247.000000	92.165	167.4774
250.000000	92.135	167.6718
254.000000	92.096	167.9283
258.000000	92.058	168.1801
262.000000	92.022	168.4284
265.000000	91.995	168.6122
269.000000	91.960	168.8564
272.000000	91.935	169.0379
276.000000	91.902	169.2755
280.000000	91.870	169.5114
285.000000	91.830	169.8094
290.000000	91.792	170.1085
295.000000	91.756	170.4051
300.000000	91.721	170.7027
304.000000	91.694	170.9424
307.000000	91.673	171.1213
311.000000	91.646	171.3567
315.000000	91.621	171.5923
320.000000	91.591	171.8850
325.000000	91.561	172.1734
330.000000	91.532	172.4637
335.000000	91.504	172.7542
340.000000	91.478	173.0403
345.000000	91.452	173.3232
350.000000	91.427	173.6088
355.000000	91.403	173.8954
360.000000	91.380	174.1778
365.000000	91.357	174.4561
370.000000	91.335	174.7339
375.000000	91.314	175.0098
382.000000	91.286	175.3933
387.000000	91.266	175.6640
395.000000	91.236	176.0999
400.000000	91.217	176.3739
406.000000	91.197	176.7001
412.000000	91.177	177.0231
418.000000	91.157	177.3401
425.000000	91.135	177.7095
431.000000	91.117	178.0304
437.000000	91.101	178.3523
444.000000	91.083	178.7212
450.000000	91.066	179.0298
455.000000	91.053	179.2838
462.000000	91.035	179.6430
468.000000	91.021	179.9586
475.000000	91.006	-179.6702
482.000000	90.991	-179.3062
487.000000	90.980	-179.0516
494.000000	90.965	-178.6998
500.000000	90.954	-178.3964
508.000000	90.940	-177.9804
515.000000	90.928	-177.6125
522.000000	90.917	-177.2499
530.000000	90.905	-176.8482
538.000000	90.892	-176.4505
545.000000	90.883	-176.0932
552.000000	90.874	-175.7277
560.000000	90.865	-175.3103
570.000000	90.854	-174.8011
580.000000	90.845	-174.3029
590.000000	90.837	-173.7937
600.000000	90.831	-173.2697
608.000000	90.827	-172.8503
615.000000	90.823	-172.4894
622.000000	90.821	-172.1340
630.000000	90.818	-171.7288
640.000000	90.817	-171.2087
650.000000	90.817	-170.6727
660.000000	90.818	-170.1378
670.000000	90.821	-169.6153
680.000000	90.826	-169.1009
690.000000	90.832	-168.5773
700.000000	90.840	-168.0392
710.000000	90.850	-167.4972
720.000000	90.861	-166.9618
730.000000	90.874	-166.4345
740.000000	90.889	-165.9052
750.000000	90.907	-165.3664
762.000000	90.930	-164.7172
775.000000	90.958	-164.0219
788.000000	90.991	-163.3340
800.000000	91.025	-162.6994
812.000000	91.062	-162.0633
825.000000	91.106	-161.3857
838.000000	91.154	-160.7217
850.000000	91.203	-160.1203
862.000000	91.256	-159.5331
875.000000	91.319	-158.9171
885.000000	91.370	-158.4639
900.000000	91.452	-157.8261
912.000000	91.522	-157.3654
925.000000	91.602	-156.9507
938.000000	91.677	-156.6763
950.000000	91.720	-156.5360
962.000000	91.725	-156.2695
975.000000	91.737	-155.6280
988.000000	91.792	-154.9847
1000.000000	91.833	-154.5239
1015.000000	91.867	-153.6730
1030.000000	91.971	-152.5886
1044.000000	92.120	-151.8846
1060.000000	92.281	-151.4492
1075.000000	92.411	-151.1804
1090.000000	92.527	-150.9548
1106.000000	92.642	-150.7482
1120.000000	92.737	-150.5946
1138.000000	92.854	-150.4218
1150.000000	92.928	-150.3167
1172.000000	93.056	-150.1434
1180.000000	93.101	-150.0863
1206.000000	93.240	-149.9207
1220.000000	93.312	-149.8384
1241.000000	93.414	-149.7058
1250.000000	93.457	-149.6418
1265.000000	93.528	-149.5289
1280.000000	93.600	-149.4194
1315.000000	93.777	-149.2456
1320.000000	93.802	-149.2338
1340.000000	93.899	-149.2158
1360.000000	93.987	-149.2274
1380.000000	94.066	-149.2438
1400.000000	94.138	-149.2507
1430.000000	94.239	-149.2231
1450.000000	94.304	-149.1662
1475.000000	94.386	-149.0456
1500.000000	94.472	-148.9008
1525.000000	94.567	-148.7855
1550.000000	94.662	-148.7251
1575.000000	94.753	-148.6988
1600.000000	94.837	-148.6735
1625.000000	94.916	-148.6361
1650.000000	94.995	-148.5873
1675.000000	95.076	-148.5349
1700.000000	95.156	-148.4850
1725.000000	95.236	-148.4349
1750.000000	95.313	-148.3803
1775.000000	95.391	-148.3245
1800.000000	95.470	-148.2714
1825.000000	95.549	-148.2196
1850.000000	95.628	-148.1664
1875.000000	95.708	-148.1135
1900.000000	95.788	-148.0658
1925.000000	95.868	-148.0246
1950.000000	95.949	-147.9896
1975.000000	96.029	-147.9582
2000.000000	96.109	-147.9252
2030.000000	96.204	-147.8773
2060.000000	96.299	-147.8180
2090.000000	96.399	-147.7542
2120.000000	96.504	-147.6973
2140.000000	96.576	-147.6697
2180.000000	96.722	-147.6448
2200.000000	96.794	-147.6409
2240.000000	96.938	-147.6322
2270.000000	97.049	-147.6177
2300.000000	97.167	-147.5959
2330.000000	97.294	-147.5789
2360.000000	97.432	-147.5956
2400.000000	97.633	-147.7514
2430.000000	97.786	-148.0075
2470.000000	97.981	-148.5170
2500.000000	98.114	-148.9841
2540.000000	98.275	-149.6637
2580.000000	98.421	-150.3675
2620.000000	98.555	-151.0743
2650.000000	98.651	-151.6050
2690.000000	98.773	-152.3189
2720.000000	98.862	-152.8629
2760.000000	98.975	-153.6033
2800.000000	99.084	-154.3631
2850.000000	99.212	-155.3492
2900.000000	99.332	-156.3855
2950.000000	99.442	-157.4621
3000.000000	99.540	-158.5695
3040.000000	99.606	-159.4341
3070.000000	99.649	-160.0528
3110.000000	99.700	-160.8507
3150.000000	99.752	-161.6322
3200.000000	99.819	-162.6186
3250.000000	99.886	-163.6500
3300.000000	99.944	-164.7380
3350.000000	99.990	-165.8585
3400.000000	100.023	-166.9757
3450.000000	100.048	-168.0753
3500.000000	100.068	-169.1716
3550.000000	100.082	-170.2871
3600.000000	100.085	-171.4271
3650.000000	100.075	-172.5710
3700.000000	100.051	-173.6850
3750.000000	100.016	-174.7423
3820.000000	99.955	-176.1193
3870.000000	99.906	-177.0442
3950.000000	99.823	-178.4557
4000.000000	99.769	-179.3045
4060.000000	99.701	179.7035
4120.000000	99.628	178.7332
4180.000000	99.546	177.7828
4250.000000	99.441	176.7095
4310.000000	99.342	175.8293
4370.000000	99.235	174.9928
4440.000000	99.099	174.0999
4500.000000	98.976	173.4026
4550.000000	98.873	172.8599
4620.000000	98.729	172.1639
4680.000000	98.605	171.6223
4750.000000	98.460	171.0496
4820.000000	98.312	170.5425
4870.000000	98.206	170.2204
4940.000000	98.056	169.8225
5000.000000	97.927	169.5292
5080.000000	97.757	169.2091
5150.000000	97.611	168.9987
5220.000000	97.465	168.8550
5300.000000	97.301	168.7749
5380.000000	97.142	168.7838
5450.000000	97.009	168.8605
5520.000000	96.882	168.9958
5600.000000	96.747	169.2130
5700.000000	96.591	169.5682
5800.000000	96.447	170.0117
5900.000000	96.319	170.5472
6000.000000	96.210	171.1696
6080.000000	96.138	171.7258
6150.000000	96.089	172.2527
6220.000000	96.056	172.8005
6300.000000	96.038	173.4110
6400.000000	96.038	174.1047
6500.000000	96.057	174.7453
6600.000000	96.099	175.3651
6700.000000	96.171	175.9483
6800.000000	96.274	176.4578
6900.000000	96.412	176.8545
7000.000000	96.589	177.0888
7100.000000	96.805	177.1025
7200.000000	97.060	176.8140
7300.000000	97.347	176.1299
7400.000000	97.656	174.9664
7500.000000	97.975	173.2537
7620.000000	98.348	170.3834
7750.000000	98.702	166.1778
7880.000000	98.948	160.8127
8000.000000	99.027	154.9327
8120.000000	98.923	148.3950
8250.000000	98.567	140.9662
8380.000000	97.943	133.6981
8500.000000	97.134	127.6158
8620.000000	96.129	122.5385
8750.000000	94.869	118.5083
8850.000000	93.818	116.5715
9000.000000	92.188	115.5708
9120.000000	90.893	116.2845
9250.000000	89.544	118.3534
9380.000000	88.275	121.5443
9500.000000	87.187	125.3203
9620.000000	86.179	129.7909
9750.000000	85.179	135.3661
9880.000000	84.278	141.7078
10000.000000	83.547	148.2860
10150.000000	82.814	157.5375
10300.000000	82.369	167.8067
10440.000000	82.328	177.8026
10600.000000	82.796	-171.5448
10750.000000	83.627	-163.8135
10900.000000	84.572	-159.2399
11060.000000	85.415	-157.6027
11200.000000	85.886	-157.8251
11380.000000	86.129	-158.5489
11500.000000	86.127	-158.6096
11720.000000	85.964	-157.2952
11800.000000	85.891	-156.3891
12060.000000	85.713	-152.2935
12200.000000	85.683	-149.5790
12410.000000	85.746	-145.1296
12500.000000	85.816	-143.1416
12650.000000	85.991	-139.7861
12800.000000	86.241	-136.4405
13150.000000	87.134	-129.0367
13200.000000	87.299	-128.0624
13400.000000	88.064	-124.4929
13600.000000	89.004	-121.6379
13800.000000	90.131	-119.8312
14000.000000	91.444	-119.5150
14300.000000	93.686	-123.3279
14500.000000	95.152	-130.1299
14750.000000	96.478	-144.2421
15000.000000	96.818	-162.0645
15250.000000	96.152	-178.4464
15500.000000	94.885	169.5701
15750.000000	93.454	161.3922
16000.000000	92.055	155.3582
16250.000000	90.679	150.3644
16500.000000	89.239	146.1085
16750.000000	87.667	142.8712
17000.000000	85.953	141.1464
17250.000000	84.146	141.2984
17500.000000	82.333	143.3613
17750.000000	80.591	147.0334
18000.000000	78.955	151.8876
18250.000000	77.391	157.9072
18500.000000	75.926	165.5109
18750.000000	74.708	173.9699
19000.000000	73.709	-177.5682
19250.000000	72.829	-169.1611
19500.000000	72.017	-160.9009
19750.000000	71.280	-153.5634
