* Measurement data measured by REW V5.20.13
* Source: EXCL: Headset (KM-HIFI-384KHZ), MICROPHONE (Master Volume), 0, volume: 1.000
* Format: 256k Log Swept Sine, 1 sweep at -24.0 dBFS with no timing reference
* Dated: Oct 13, 2023 10:20:29 PM
* REW Settings:
*  C-weighting compensation: Off
*  Target level: 75.0 dB
* Note: ; 
* Measurement: Moondrop Chu S2 R
* Smoothing: 1/24 octave
* Frequency Step: 1/48 octave
* Start Frequency: 20.000 Hz
*
* Freq(Hz)	SPL(dB)	Phase(degrees)
20.000000	98.760	-153.3632
20.299999	98.765	-154.1135
20.600000	98.768	-154.8336
20.900000	98.769	-155.5231
21.200001	98.771	-156.1875
21.400000	98.773	-156.6221
21.799999	98.776	-157.4783
22.000000	98.777	-157.9012
22.400000	98.776	-158.7322
22.700001	98.774	-159.3342
23.000000	98.772	-159.9133
23.299999	98.771	-160.4744
23.600000	98.772	-161.0281
24.000000	98.776	-161.7744
24.299999	98.779	-162.3492
24.700001	98.780	-163.1313
25.000000	98.776	-163.7165
25.400000	98.766	-164.4757
25.799999	98.754	-165.2001
26.200001	98.741	-165.8935
26.500000	98.731	-166.3991
26.900000	98.718	-167.0574
27.200001	98.708	-167.5388
27.600000	98.695	-168.1637
28.000000	98.683	-168.7749
28.500000	98.668	-169.5345
29.000000	98.650	-170.2905
29.500000	98.627	-171.0163
30.000000	98.603	-171.6864
30.400000	98.586	-172.1903
30.700001	98.576	-172.5634
31.100000	98.563	-173.0703
31.500000	98.549	-173.5888
32.000000	98.525	-174.2304
32.500000	98.496	-174.8333
33.000000	98.467	-175.3928
33.500000	98.441	-175.9322
34.000000	98.414	-176.4735
34.500000	98.386	-177.0176
35.000000	98.354	-177.5536
35.500000	98.319	-178.0732
36.000000	98.282	-178.5732
36.500000	98.244	-179.0529
37.000000	98.207	-179.5170
37.500000	98.170	-179.9774
38.200001	98.118	179.3660
38.700001	98.075	178.9039
39.500000	97.997	178.2730
40.000000	97.951	177.9822
40.599998	97.909	177.7126
41.200001	97.884	177.4582
41.799999	97.870	177.1699
42.500000	97.859	176.7858
43.099998	97.852	176.4288
43.700001	97.844	176.0440
44.400002	97.831	175.5549
45.000000	97.813	175.1111
45.500000	97.792	174.7391
46.200001	97.755	174.2377
46.799999	97.717	173.8366
47.500000	97.672	173.3933
48.200001	97.624	172.9651
48.700001	97.588	172.6718
49.400002	97.538	172.2879
50.000000	97.496	171.9847
50.799999	97.444	171.6129
51.500000	97.406	171.3006
52.200001	97.372	170.9722
53.000000	97.333	170.5700
53.799999	97.291	170.1709
54.500000	97.252	169.8381
55.200001	97.213	169.5180
56.000000	97.167	169.1668
57.000000	97.111	168.7382
58.000000	97.054	168.3051
59.000000	96.994	167.8811
60.000000	96.932	167.4820
60.799999	96.883	167.1822
61.500000	96.840	166.9324
62.200001	96.798	166.6927
63.000000	96.750	166.4301
64.000000	96.691	166.1175
65.000000	96.632	165.8166
66.000000	96.573	165.5182
67.000000	96.513	165.2255
68.000000	96.452	164.9479
69.000000	96.391	164.6864
70.000000	96.331	164.4382
71.000000	96.272	164.2021
72.000000	96.214	163.9752
73.000000	96.155	163.7608
74.000000	96.097	163.5618
75.000000	96.040	163.3719
76.199997	95.972	163.1532
77.500000	95.899	162.9308
78.800003	95.827	162.7184
80.000000	95.760	162.5290
81.199997	95.693	162.3486
82.500000	95.620	162.1611
83.800003	95.547	161.9871
85.000000	95.480	161.8356
86.199997	95.412	161.6894
87.500000	95.337	161.5494
88.500000	95.280	161.4520
90.000000	95.194	161.3143
91.199997	95.125	161.2175
92.500000	95.049	161.1235
93.800003	94.974	161.0373
95.000000	94.903	160.9658
96.199997	94.833	160.9044
97.500000	94.756	160.8484
98.800003	94.676	160.8035
100.000000	94.599	160.7742
101.500000	94.498	160.7623
103.000000	94.390	160.7946
104.400002	94.284	160.8630
106.000000	94.151	161.0074
107.500000	94.016	161.2669
109.000000	93.874	161.6848
110.599998	93.719	162.3271
112.000000	93.582	163.1229
113.800003	93.421	164.6613
115.000000	93.355	166.0870
117.199997	93.431	169.2319
118.000000	93.542	170.3047
120.599998	94.107	172.0077
122.000000	94.397	171.5424
124.099998	94.670	169.7998
125.000000	94.726	168.9442
126.500000	94.755	167.6129
128.000000	94.733	166.4985
131.500000	94.592	164.7368
132.000000	94.569	164.5594
134.000000	94.475	163.9814
136.000000	94.384	163.5620
138.000000	94.297	163.2582
140.000000	94.212	163.0429
143.000000	94.095	162.8301
145.000000	94.023	162.7387
147.500000	93.938	162.6686
150.000000	93.857	162.6408
152.500000	93.782	162.6357
155.000000	93.710	162.6428
157.500000	93.640	162.6744
160.000000	93.573	162.7245
162.500000	93.508	162.7838
165.000000	93.447	162.8509
167.500000	93.388	162.9275
170.000000	93.331	163.0149
172.500000	93.275	163.1106
175.000000	93.221	163.2101
177.500000	93.170	163.3133
180.000000	93.119	163.4253
182.500000	93.070	163.5417
185.000000	93.023	163.6596
187.500000	92.976	163.7811
190.000000	92.930	163.9076
192.500000	92.886	164.0343
195.000000	92.843	164.1607
197.500000	92.801	164.2906
200.000000	92.760	164.4266
203.000000	92.715	164.5840
206.000000	92.670	164.7369
209.000000	92.627	164.8990
212.000000	92.584	165.0678
214.000000	92.556	165.1791
218.000000	92.501	165.3974
220.000000	92.475	165.5102
224.000000	92.425	165.7448
227.000000	92.387	165.9208
230.000000	92.350	166.0939
233.000000	92.314	166.2620
236.000000	92.279	166.4316
240.000000	92.235	166.6649
243.000000	92.202	166.8363
247.000000	92.160	167.0587
250.000000	92.130	167.2301
254.000000	92.091	167.4654
258.000000	92.052	167.6958
262.000000	92.014	167.9209
265.000000	91.987	168.0887
269.000000	91.952	168.3134
272.000000	91.926	168.4845
276.000000	91.892	168.7172
280.000000	91.859	168.9484
285.000000	91.819	169.2290
290.000000	91.782	169.5068
295.000000	91.746	169.7827
300.000000	91.711	170.0546
304.000000	91.684	170.2720
307.000000	91.664	170.4353
311.000000	91.638	170.6497
315.000000	91.613	170.8646
320.000000	91.583	171.1381
325.000000	91.553	171.4141
330.000000	91.523	171.6879
335.000000	91.495	171.9522
340.000000	91.467	172.2170
345.000000	91.440	172.4778
350.000000	91.413	172.7362
355.000000	91.388	172.9971
360.000000	91.364	173.2559
365.000000	91.341	173.5112
370.000000	91.319	173.7666
375.000000	91.297	174.0236
382.000000	91.268	174.3815
387.000000	91.247	174.6350
395.000000	91.215	175.0323
400.000000	91.196	175.2814
406.000000	91.173	175.5858
412.000000	91.150	175.8865
418.000000	91.129	176.1846
425.000000	91.104	176.5353
431.000000	91.082	176.8346
437.000000	91.062	177.1321
444.000000	91.038	177.4813
450.000000	91.018	177.7870
455.000000	91.002	178.0510
462.000000	90.981	178.4457
468.000000	90.971	178.7943
475.000000	90.966	179.1609
482.000000	90.960	179.4672
487.000000	90.952	179.6723
494.000000	90.937	179.9666
500.000000	90.922	-179.7695
508.000000	90.904	-179.4058
515.000000	90.889	-179.0809
522.000000	90.875	-178.7509
530.000000	90.859	-178.3717
538.000000	90.844	-177.9924
545.000000	90.831	-177.6577
552.000000	90.819	-177.3228
560.000000	90.806	-176.9418
570.000000	90.792	-176.4653
580.000000	90.779	-175.9833
590.000000	90.768	-175.5014
600.000000	90.757	-175.0161
608.000000	90.750	-174.6249
615.000000	90.744	-174.2815
622.000000	90.738	-173.9371
630.000000	90.732	-173.5436
640.000000	90.726	-173.0494
650.000000	90.721	-172.5502
660.000000	90.718	-172.0481
670.000000	90.716	-171.5431
680.000000	90.716	-171.0357
690.000000	90.718	-170.5274
700.000000	90.721	-170.0185
710.000000	90.727	-169.5068
720.000000	90.734	-168.9889
730.000000	90.744	-168.4668
740.000000	90.754	-167.9461
750.000000	90.766	-167.4307
762.000000	90.784	-166.8081
775.000000	90.806	-166.1266
788.000000	90.833	-165.4432
800.000000	90.860	-164.8160
812.000000	90.891	-164.1953
825.000000	90.928	-163.5281
838.000000	90.970	-162.8664
850.000000	91.013	-162.2640
862.000000	91.061	-161.6759
875.000000	91.116	-161.0556
885.000000	91.161	-160.5905
900.000000	91.234	-159.9210
912.000000	91.295	-159.4232
925.000000	91.363	-158.9346
938.000000	91.423	-158.4946
950.000000	91.467	-158.0557
962.000000	91.514	-157.4964
975.000000	91.591	-156.8587
988.000000	91.684	-156.3325
1000.000000	91.770	-155.9383
1015.000000	91.873	-155.5140
1030.000000	91.974	-155.1378
1044.000000	92.067	-154.8195
1060.000000	92.172	-154.4966
1075.000000	92.271	-154.2335
1090.000000	92.367	-154.0083
1106.000000	92.468	-153.8050
1120.000000	92.554	-153.6556
1138.000000	92.660	-153.5005
1150.000000	92.729	-153.4188
1172.000000	92.850	-153.3069
1180.000000	92.893	-153.2760
1206.000000	93.023	-153.2059
1220.000000	93.089	-153.1865
1241.000000	93.182	-153.1735
1250.000000	93.220	-153.1725
1265.000000	93.281	-153.1759
1280.000000	93.339	-153.1829
1315.000000	93.464	-153.2014
1320.000000	93.481	-153.2045
1340.000000	93.546	-153.2159
1360.000000	93.607	-153.2238
1380.000000	93.664	-153.2265
1400.000000	93.720	-153.2222
1430.000000	93.797	-153.2016
1450.000000	93.846	-153.1789
1475.000000	93.904	-153.1382
1500.000000	93.959	-153.0802
1525.000000	94.011	-153.0009
1550.000000	94.062	-152.8987
1575.000000	94.110	-152.7660
1600.000000	94.157	-152.5905
1625.000000	94.207	-152.3629
1650.000000	94.266	-152.0870
1675.000000	94.337	-151.7975
1700.000000	94.423	-151.5574
1725.000000	94.516	-151.4212
1750.000000	94.604	-151.3896
1775.000000	94.682	-151.4172
1800.000000	94.749	-151.4538
1825.000000	94.809	-151.4726
1850.000000	94.864	-151.4652
1875.000000	94.917	-151.4334
1900.000000	94.970	-151.3840
1925.000000	95.024	-151.3272
1950.000000	95.076	-151.2719
1975.000000	95.126	-151.2214
2000.000000	95.172	-151.1691
2030.000000	95.222	-151.0862
2060.000000	95.264	-150.9642
2090.000000	95.301	-150.7796
2120.000000	95.334	-150.5038
2140.000000	95.356	-150.2532
2180.000000	95.412	-149.5628
2200.000000	95.451	-149.1263
2240.000000	95.567	-148.1367
2270.000000	95.690	-147.3657
2300.000000	95.848	-146.6308
2330.000000	96.042	-146.0025
2360.000000	96.267	-145.5872
2400.000000	96.588	-145.5237
2430.000000	96.814	-145.8354
2470.000000	97.070	-146.5328
2500.000000	97.231	-147.1277
2540.000000	97.418	-147.9251
2580.000000	97.585	-148.7331
2620.000000	97.733	-149.5639
2650.000000	97.832	-150.1873
2690.000000	97.949	-150.9931
2720.000000	98.029	-151.5708
2760.000000	98.128	-152.3058
2800.000000	98.221	-153.0067
2850.000000	98.332	-153.8452
2900.000000	98.439	-154.6500
2950.000000	98.544	-155.4291
3000.000000	98.652	-156.2044
3040.000000	98.740	-156.8455
3070.000000	98.806	-157.3500
3110.000000	98.894	-158.0631
3150.000000	98.978	-158.8236
3200.000000	99.076	-159.8354
3250.000000	99.162	-160.9028
3300.000000	99.237	-162.0059
3350.000000	99.302	-163.1301
3400.000000	99.359	-164.2819
3450.000000	99.401	-165.4297
3500.000000	99.425	-166.5500
3550.000000	99.437	-167.6693
3600.000000	99.443	-168.7942
3650.000000	99.442	-169.9024
3700.000000	99.434	-170.9947
3750.000000	99.419	-172.0789
3820.000000	99.375	-173.5299
3870.000000	99.327	-174.5002
3950.000000	99.240	-175.9791
4000.000000	99.185	-176.8597
4060.000000	99.115	-177.8856
4120.000000	99.039	-178.8938
4180.000000	98.955	-179.8825
4250.000000	98.843	179.0071
4310.000000	98.736	178.1106
4370.000000	98.621	177.2773
4440.000000	98.478	176.3892
4500.000000	98.350	175.7008
4550.000000	98.240	175.1789
4620.000000	98.082	174.5258
4680.000000	97.944	174.0360
4750.000000	97.781	173.5416
4820.000000	97.617	173.1291
4870.000000	97.498	172.8849
4940.000000	97.332	172.6169
5000.000000	97.189	172.4608
5080.000000	97.002	172.3596
5150.000000	96.845	172.3633
5220.000000	96.695	172.4387
5300.000000	96.533	172.5960
5380.000000	96.379	172.8184
5450.000000	96.251	173.0636
5520.000000	96.128	173.3580
5600.000000	95.995	173.7594
5700.000000	95.840	174.3658
5800.000000	95.703	175.0807
5900.000000	95.587	175.8850
6000.000000	95.492	176.7550
6080.000000	95.433	177.4877
6150.000000	95.392	178.1508
6220.000000	95.364	178.8290
6300.000000	95.347	179.6137
6400.000000	95.351	-179.4133
6500.000000	95.383	-178.4818
6600.000000	95.441	-177.6200
6700.000000	95.522	-176.8394
6800.000000	95.624	-176.1339
6900.000000	95.748	-175.4890
7000.000000	95.902	-174.9038
7100.000000	96.093	-174.4106
7200.000000	96.327	-174.0870
7300.000000	96.603	-174.0310
7400.000000	96.914	-174.3262
7500.000000	97.253	-175.0408
7620.000000	97.684	-176.5576
7750.000000	98.152	-179.1662
7880.000000	98.576	177.0943
8000.000000	98.877	172.6342
8120.000000	99.043	167.3524
8250.000000	99.031	161.0304
8380.000000	98.803	154.5276
8500.000000	98.409	148.7500
8620.000000	97.861	143.4587
8750.000000	97.129	138.4410
8850.000000	96.489	135.1300
9000.000000	95.428	131.0815
9120.000000	94.506	128.6603
9250.000000	93.447	126.9149
9380.000000	92.341	126.1571
9500.000000	91.299	126.3817
9620.000000	90.261	127.4868
9750.000000	89.167	129.6136
9880.000000	88.126	132.6035
10000.000000	87.224	136.0319
10150.000000	86.185	141.1133
10300.000000	85.254	147.0099
10440.000000	84.492	153.2348
10600.000000	83.770	161.2326
10750.000000	83.285	169.5873
10900.000000	83.068	178.5667
11060.000000	83.222	-171.8330
11200.000000	83.695	-164.3188
11380.000000	84.609	-157.2408
11500.000000	85.254	-154.5267
11720.000000	86.186	-152.9692
11800.000000	86.407	-153.0284
12060.000000	86.750	-153.3308
12200.000000	86.784	-152.9294
12410.000000	86.782	-151.3516
12500.000000	86.788	-150.3729
12650.000000	86.830	-148.4539
12800.000000	86.925	-146.3008
13150.000000	87.396	-141.0689
13200.000000	87.493	-140.3570
13400.000000	87.961	-137.7471
13600.000000	88.551	-135.6983
13800.000000	89.257	-134.4625
14000.000000	90.057	-134.2905
14300.000000	91.370	-136.6150
14500.000000	92.231	-140.3448
14750.000000	93.114	-147.6810
15000.000000	93.613	-157.3507
15250.000000	93.641	-167.9247
15500.000000	93.251	-177.9435
15750.000000	92.579	173.2203
16000.000000	91.728	165.3954
16250.000000	90.719	158.2228
16500.000000	89.513	151.6568
16750.000000	88.068	146.1038
17000.000000	86.390	142.1817
17250.000000	84.539	140.3532
17500.000000	82.608	140.7485
17750.000000	80.687	143.1638
18000.000000	78.838	147.1575
18250.000000	77.044	152.5096
18500.000000	75.269	159.9704
18750.000000	73.718	169.3043
19000.000000	72.491	178.7272
19250.000000	71.404	-172.0189
19500.000000	70.359	-162.7724
19750.000000	69.384	-154.3727
