* Measurement data measured by REW V5.20.13
* Source: EXCL: Headset (KM-HIFI-384KHZ), MICROPHONE (Master Volume), 0, volume: 1.000
* Format: 256k Log Swept Sine, 1 sweep at -20.0 dBFS with no timing reference
* Dated: Nov 12, 2023 11:58:06 PM
* REW Settings:
*  C-weighting compensation: Off
*  Target level: 75.0 dB
* Note: ; 
* Measurement: Poke RE-2 Coreir L
* Smoothing: 1/24 octave
* Frequency Step: 1/48 octave
* Start Frequency: 20.000 Hz
*
* Freq(Hz)	SPL(dB)	Phase(degrees)
20.000000	93.493	-117.6190
20.299999	93.576	-118.3317
20.600000	93.656	-119.0433
20.900000	93.733	-119.7513
21.200001	93.807	-120.4500
21.400000	93.854	-120.9076
21.799999	93.945	-121.8011
22.000000	93.989	-122.2372
22.400000	94.076	-123.0914
22.700001	94.140	-123.7206
23.000000	94.203	-124.3436
23.299999	94.266	-124.9629
23.600000	94.327	-125.5808
24.000000	94.406	-126.4050
24.299999	94.463	-127.0228
24.700001	94.534	-127.8396
25.000000	94.583	-128.4370
25.400000	94.645	-129.1990
25.799999	94.707	-129.9148
26.200001	94.771	-130.5964
26.500000	94.821	-131.1021
26.900000	94.890	-131.7887
27.200001	94.941	-132.3177
27.600000	95.004	-133.0322
28.000000	95.061	-133.7333
28.500000	95.127	-134.5651
29.000000	95.194	-135.3611
29.500000	95.262	-136.1600
30.000000	95.323	-136.9727
30.400000	95.365	-137.6095
30.700001	95.394	-138.0646
31.100000	95.431	-138.6369
31.500000	95.471	-139.1833
32.000000	95.524	-139.8655
32.500000	95.576	-140.5712
33.000000	95.622	-141.2877
33.500000	95.663	-141.9873
34.000000	95.702	-142.6586
34.500000	95.740	-143.3111
35.000000	95.778	-143.9544
35.500000	95.815	-144.5903
36.000000	95.852	-145.2193
36.500000	95.887	-145.8455
37.000000	95.921	-146.4688
37.500000	95.951	-147.0801
38.200001	95.992	-147.9052
38.700001	96.022	-148.4829
39.500000	96.066	-149.4089
40.000000	96.089	-149.9744
40.599998	96.114	-150.6207
41.200001	96.140	-151.2414
41.799999	96.167	-151.8553
42.500000	96.195	-152.5643
43.099998	96.219	-153.1624
43.700001	96.242	-153.7619
44.400002	96.263	-154.4595
45.000000	96.278	-155.0308
45.500000	96.289	-155.4819
46.200001	96.309	-156.1001
46.799999	96.325	-156.6353
47.500000	96.342	-157.2545
48.200001	96.358	-157.8599
48.700001	96.369	-158.2917
49.400002	96.383	-158.8978
50.000000	96.392	-159.4059
50.799999	96.403	-160.0600
51.500000	96.412	-160.6206
52.200001	96.419	-161.1698
53.000000	96.427	-161.7772
53.799999	96.435	-162.3729
54.500000	96.441	-162.8900
55.200001	96.446	-163.4005
56.000000	96.449	-163.9721
57.000000	96.450	-164.6564
58.000000	96.452	-165.3086
59.000000	96.455	-165.9552
60.000000	96.456	-166.5991
60.799999	96.456	-167.1119
61.500000	96.455	-167.5583
62.200001	96.451	-167.9953
63.000000	96.446	-168.4781
64.000000	96.440	-169.0655
65.000000	96.434	-169.6465
66.000000	96.426	-170.2167
67.000000	96.416	-170.7689
68.000000	96.406	-171.3091
69.000000	96.395	-171.8389
70.000000	96.383	-172.3542
71.000000	96.370	-172.8584
72.000000	96.357	-173.3564
73.000000	96.343	-173.8419
74.000000	96.328	-174.3130
75.000000	96.313	-174.7782
76.199997	96.294	-175.3281
77.500000	96.272	-175.9072
78.800003	96.249	-176.4648
80.000000	96.227	-176.9716
81.199997	96.203	-177.4612
82.500000	96.177	-177.9723
83.800003	96.151	-178.4710
85.000000	96.126	-178.9257
86.199997	96.100	-179.3703
87.500000	96.071	-179.8404
88.500000	96.048	179.8049
90.000000	96.014	179.2905
91.199997	95.987	178.8848
92.500000	95.956	178.4554
93.800003	95.925	178.0352
95.000000	95.895	177.6582
96.199997	95.866	177.2926
97.500000	95.833	176.9033
98.800003	95.800	176.5331
100.000000	95.770	176.2044
101.500000	95.731	175.7904
103.000000	95.690	175.4012
104.400002	95.652	175.0421
106.000000	95.608	174.6583
107.500000	95.571	174.3184
109.000000	95.534	173.9612
110.599998	95.492	173.6092
112.000000	95.455	173.3025
113.800003	95.406	172.9266
115.000000	95.375	172.6750
117.199997	95.314	172.1735
118.000000	95.289	172.0077
120.599998	95.214	171.5587
122.000000	95.178	171.3061
124.099998	95.120	170.8997
125.000000	95.093	170.7293
126.500000	95.047	170.4650
128.000000	95.001	170.2283
131.500000	94.902	169.6947
132.000000	94.887	169.6157
134.000000	94.827	169.2979
136.000000	94.763	168.9974
138.000000	94.697	168.7264
140.000000	94.629	168.4854
143.000000	94.528	168.1626
145.000000	94.459	167.9573
147.500000	94.371	167.7224
150.000000	94.279	167.5222
152.500000	94.181	167.3680
155.000000	94.077	167.2734
157.500000	93.965	167.2711
160.000000	93.845	167.4120
162.500000	93.722	167.7442
165.000000	93.611	168.3133
167.500000	93.547	169.1045
170.000000	93.558	169.9315
172.500000	93.645	170.4721
175.000000	93.772	170.5754
177.500000	93.886	170.3033
180.000000	93.949	169.8544
182.500000	93.949	169.3509
185.000000	93.916	168.7297
187.500000	93.872	168.1353
190.000000	93.831	167.6226
192.500000	93.783	167.3300
195.000000	93.727	167.0708
197.500000	93.663	166.8843
200.000000	93.611	166.6894
203.000000	93.538	166.4787
206.000000	93.475	166.3429
209.000000	93.406	166.1755
212.000000	93.341	166.1177
214.000000	93.302	166.0096
218.000000	93.211	165.8868
220.000000	93.178	165.8857
224.000000	93.103	165.7333
227.000000	93.029	165.7315
230.000000	92.980	165.7688
233.000000	92.929	165.6613
236.000000	92.857	165.6163
240.000000	92.778	165.7410
243.000000	92.735	165.7632
247.000000	92.665	165.7192
250.000000	92.605	165.7318
254.000000	92.527	165.8158
258.000000	92.458	165.9318
262.000000	92.394	166.0478
265.000000	92.350	166.1227
269.000000	92.290	166.2056
272.000000	92.244	166.2695
276.000000	92.182	166.3747
280.000000	92.120	166.4940
285.000000	92.044	166.6544
290.000000	91.973	166.8331
295.000000	91.902	167.0125
300.000000	91.831	167.2015
304.000000	91.775	167.3526
307.000000	91.735	167.4771
311.000000	91.683	167.6630
315.000000	91.632	167.8465
320.000000	91.571	168.0652
325.000000	91.516	168.3052
330.000000	91.456	168.5387
335.000000	91.396	168.7813
340.000000	91.345	169.0795
345.000000	91.291	169.3267
350.000000	91.238	169.6179
355.000000	91.191	169.9004
360.000000	91.145	170.1497
365.000000	91.099	170.4045
370.000000	91.055	170.6688
375.000000	91.013	170.9368
382.000000	90.955	171.3089
387.000000	90.913	171.5735
395.000000	90.848	172.0031
400.000000	90.810	172.2810
406.000000	90.764	172.6191
412.000000	90.717	172.9551
418.000000	90.672	173.2907
425.000000	90.622	173.6940
431.000000	90.579	174.0464
437.000000	90.538	174.4011
444.000000	90.493	174.8203
450.000000	90.455	175.1771
455.000000	90.425	175.4802
462.000000	90.383	175.9130
468.000000	90.349	176.2838
475.000000	90.310	176.7189
482.000000	90.272	177.1642
487.000000	90.246	177.4831
494.000000	90.212	177.9282
500.000000	90.184	178.3127
508.000000	90.147	178.8234
515.000000	90.116	179.2698
522.000000	90.088	179.7209
530.000000	90.058	-179.7606
538.000000	90.029	-179.2360
545.000000	90.004	-178.7704
552.000000	89.980	-178.3057
560.000000	89.955	-177.7771
570.000000	89.926	-177.1170
580.000000	89.900	-176.4516
590.000000	89.875	-175.7715
600.000000	89.854	-175.0923
608.000000	89.839	-174.5496
615.000000	89.827	-174.0730
622.000000	89.816	-173.5943
630.000000	89.804	-173.0439
640.000000	89.793	-172.3479
650.000000	89.784	-171.6481
660.000000	89.777	-170.9483
670.000000	89.774	-170.2472
680.000000	89.773	-169.5468
690.000000	89.775	-168.8455
700.000000	89.779	-168.1408
710.000000	89.786	-167.4303
720.000000	89.795	-166.7171
730.000000	89.808	-166.0016
740.000000	89.824	-165.2821
750.000000	89.842	-164.5654
762.000000	89.869	-163.7073
775.000000	89.903	-162.7780
788.000000	89.942	-161.8517
800.000000	89.982	-160.9979
812.000000	90.028	-160.1513
825.000000	90.084	-159.2434
838.000000	90.145	-158.3440
850.000000	90.206	-157.5259
862.000000	90.273	-156.7208
875.000000	90.351	-155.8656
885.000000	90.415	-155.2204
900.000000	90.518	-154.2770
912.000000	90.606	-153.5470
925.000000	90.706	-152.7866
938.000000	90.813	-152.0576
950.000000	90.915	-151.4152
962.000000	91.021	-150.8057
975.000000	91.142	-150.1848
988.000000	91.266	-149.6074
1000.000000	91.385	-149.1163
1015.000000	91.537	-148.5638
1030.000000	91.695	-148.0833
1044.000000	91.844	-147.7097
1060.000000	92.018	-147.3830
1075.000000	92.180	-147.1777
1090.000000	92.339	-147.0763
1106.000000	92.500	-147.0794
1120.000000	92.632	-147.1580
1138.000000	92.791	-147.3339
1150.000000	92.893	-147.5085
1172.000000	93.063	-148.0709
1180.000000	93.108	-148.3658
1206.000000	93.153	-149.2742
1220.000000	93.130	-149.4541
1241.000000	93.098	-149.2153
1250.000000	93.097	-148.9839
1265.000000	93.117	-148.5206
1280.000000	93.160	-148.0311
1315.000000	93.321	-147.0057
1320.000000	93.348	-146.8798
1340.000000	93.461	-146.4279
1360.000000	93.580	-146.0489
1380.000000	93.702	-145.7297
1400.000000	93.824	-145.4606
1430.000000	94.007	-145.1291
1450.000000	94.128	-144.9485
1475.000000	94.278	-144.7557
1500.000000	94.428	-144.5972
1525.000000	94.576	-144.4686
1550.000000	94.724	-144.3656
1575.000000	94.873	-144.2898
1600.000000	95.020	-144.2395
1625.000000	95.168	-144.2156
1650.000000	95.316	-144.2158
1675.000000	95.465	-144.2408
1700.000000	95.613	-144.2930
1725.000000	95.762	-144.3725
1750.000000	95.911	-144.4804
1775.000000	96.061	-144.6187
1800.000000	96.210	-144.7863
1825.000000	96.359	-144.9852
1850.000000	96.507	-145.2189
1875.000000	96.655	-145.4855
1900.000000	96.801	-145.7841
1925.000000	96.947	-146.1149
1950.000000	97.092	-146.4768
1975.000000	97.235	-146.8715
2000.000000	97.376	-147.2980
2030.000000	97.545	-147.8538
2060.000000	97.711	-148.4574
2090.000000	97.876	-149.1130
2120.000000	98.039	-149.8318
2140.000000	98.145	-150.3509
2180.000000	98.351	-151.4889
2200.000000	98.449	-152.1069
2240.000000	98.632	-153.4318
2270.000000	98.756	-154.4925
2300.000000	98.869	-155.6017
2330.000000	98.968	-156.7500
2360.000000	99.054	-157.9271
2400.000000	99.147	-159.5241
2430.000000	99.200	-160.7261
2470.000000	99.248	-162.3082
2500.000000	99.268	-163.4627
2540.000000	99.278	-164.9396
2580.000000	99.271	-166.3327
2620.000000	99.252	-167.6384
2650.000000	99.231	-168.5636
2690.000000	99.197	-169.7300
2720.000000	99.167	-170.5576
2760.000000	99.123	-171.6035
2800.000000	99.074	-172.5898
2850.000000	99.008	-173.7466
2900.000000	98.938	-174.8234
2950.000000	98.863	-175.8281
3000.000000	98.786	-176.7646
3040.000000	98.721	-177.4671
3070.000000	98.673	-177.9679
3110.000000	98.607	-178.6017
3150.000000	98.541	-179.1993
3200.000000	98.459	-179.9010
3250.000000	98.377	179.4402
3300.000000	98.296	178.8171
3350.000000	98.216	178.2245
3400.000000	98.136	177.6602
3450.000000	98.057	177.1194
3500.000000	97.978	176.5991
3550.000000	97.899	176.0971
3600.000000	97.820	175.6103
3650.000000	97.741	175.1354
3700.000000	97.661	174.6720
3750.000000	97.579	174.2194
3820.000000	97.463	173.6039
3870.000000	97.377	173.1789
3950.000000	97.235	172.5273
4000.000000	97.143	172.1400
4060.000000	97.029	171.7005
4120.000000	96.912	171.2935
4180.000000	96.791	170.9222
4250.000000	96.647	170.5369
4310.000000	96.521	170.2488
4370.000000	96.395	169.9991
4440.000000	96.248	169.7544
4500.000000	96.122	169.5823
4550.000000	96.018	169.4623
4620.000000	95.873	169.3245
4680.000000	95.751	169.2290
4750.000000	95.609	169.1424
4820.000000	95.468	169.0809
4870.000000	95.369	169.0539
4940.000000	95.230	169.0476
5000.000000	95.116	169.0698
5080.000000	94.974	169.0886
5150.000000	94.852	169.0302
5220.000000	94.720	168.9167
5300.000000	94.550	168.8184
5380.000000	94.366	168.8174
5450.000000	94.200	168.9099
5520.000000	94.031	169.0919
5600.000000	93.837	169.4119
5700.000000	93.597	169.9824
5800.000000	93.365	170.7434
5900.000000	93.146	171.6903
6000.000000	92.944	172.8149
6080.000000	92.799	173.8324
6150.000000	92.685	174.8012
6220.000000	92.585	175.8368
6300.000000	92.489	177.0917
6400.000000	92.400	178.7490
6500.000000	92.350	-179.5203
6600.000000	92.340	-177.7436
6700.000000	92.375	-175.9498
6800.000000	92.458	-174.1717
6900.000000	92.590	-172.4466
7000.000000	92.778	-170.8130
7100.000000	93.027	-169.3289
7200.000000	93.338	-168.0795
7300.000000	93.713	-167.1626
7400.000000	94.149	-166.6812
7500.000000	94.642	-166.7592
7620.000000	95.295	-167.8193
7750.000000	96.035	-170.5238
7880.000000	96.718	-175.2340
8000.000000	97.178	178.5184
8120.000000	97.351	170.8089
8250.000000	97.122	161.8646
8380.000000	96.464	153.7321
8500.000000	95.562	147.8973
8620.000000	94.499	143.9870
8750.000000	93.286	141.7790
8850.000000	92.367	141.2800
9000.000000	91.066	142.0472
9120.000000	90.112	143.6633
9250.000000	89.171	146.1656
9380.000000	88.323	149.2717
9500.000000	87.619	152.5644
9620.000000	86.985	156.1960
9750.000000	86.371	160.4575
9880.000000	85.832	165.0244
10000.000000	85.399	169.4945
10150.000000	84.950	175.4200
10300.000000	84.614	-178.2761
10440.000000	84.422	-172.0654
10600.000000	84.387	-164.6881
10750.000000	84.573	-157.7818
10900.000000	84.986	-151.3777
11060.000000	85.627	-145.7469
11200.000000	86.261	-142.1250
11380.000000	87.057	-138.9184
11500.000000	87.565	-137.3018
11720.000000	88.535	-134.8138
11800.000000	88.930	-134.0504
12060.000000	90.493	-132.7420
12200.000000	91.543	-133.4662
12410.000000	93.295	-138.1660
12500.000000	94.023	-142.0681
12650.000000	95.008	-151.5648
12800.000000	95.485	-164.2199
13150.000000	94.106	167.0638
13200.000000	93.686	164.2522
13400.000000	91.802	156.8988
13600.000000	89.937	154.3767
13800.000000	88.332	154.7734
14000.000000	87.034	156.8136
14300.000000	85.608	161.4146
14500.000000	84.958	164.8689
14750.000000	84.429	169.1093
15000.000000	84.198	172.7773
15250.000000	84.209	174.7245
15500.000000	84.207	174.4990
15750.000000	84.073	172.7587
16000.000000	83.709	169.7171
16250.000000	82.990	166.3484
16500.000000	81.905	164.0881
16750.000000	80.568	163.8664
17000.000000	79.137	165.8174
17250.000000	77.746	169.5666
17500.000000	76.484	174.5597
17750.000000	75.397	-179.7592
18000.000000	74.504	-173.9009
18250.000000	73.809	-168.4161
18500.000000	73.295	-163.9093
18750.000000	72.904	-160.9543
19000.000000	72.528	-159.9402
19250.000000	72.024	-160.8277
19500.000000	71.249	-162.9482
19750.000000	70.220	-165.0797
