* Measurement data measured by REW V5.20.13
* Source: EXCL: Headset (3- KM-HIFI-384KHZ), MICROPHONE (Master Volume), 0, volume: 1.000
* Format: 256k Log Swept Sine, 1 sweep at -24.0 dBFS with no timing reference
* Dated: Sep 22, 2023 11:04:52 AM
* REW Settings:
*  C-weighting compensation: Off
*  Target level: 75.0 dB
* Note: ; 
* Measurement: Meteor L
* Smoothing: 1/24 octave
* Frequency Step: 1/48 octave
* Start Frequency: 20.000 Hz
*
* Freq(Hz)	SPL(dB)	Phase(degrees)
20.000000	85.556	-169.1920
20.299999	85.565	-169.9216
20.600000	85.574	-170.6324
20.900000	85.583	-171.3284
21.200001	85.593	-172.0145
21.400000	85.600	-172.4688
21.799999	85.612	-173.3716
22.000000	85.618	-173.8200
22.400000	85.627	-174.7074
22.700001	85.633	-175.3608
23.000000	85.637	-176.0005
23.299999	85.640	-176.6256
23.600000	85.643	-177.2374
24.000000	85.647	-178.0364
24.299999	85.650	-178.6268
24.700001	85.654	-179.4056
25.000000	85.656	-179.9842
25.400000	85.659	179.2521
25.799999	85.662	178.4976
26.200001	85.663	177.7514
26.500000	85.664	177.1965
26.900000	85.664	176.4629
27.200001	85.664	175.9188
27.600000	85.662	175.2039
28.000000	85.660	174.5030
28.500000	85.658	173.6437
29.000000	85.657	172.7950
29.500000	85.656	171.9501
30.000000	85.653	171.1096
30.400000	85.650	170.4442
30.700001	85.647	169.9511
31.100000	85.642	169.3027
31.500000	85.637	168.6649
32.000000	85.629	167.8823
32.500000	85.621	167.1149
33.000000	85.613	166.3593
33.500000	85.606	165.6104
34.000000	85.598	164.8648
34.500000	85.588	164.1236
35.000000	85.578	163.3912
35.500000	85.566	162.6718
36.000000	85.553	161.9661
36.500000	85.541	161.2715
37.000000	85.530	160.5839
37.500000	85.518	159.8993
38.200001	85.502	158.9434
38.700001	85.489	158.2642
39.500000	85.467	157.1908
40.000000	85.453	156.5290
40.599998	85.435	155.7429
41.200001	85.417	154.9659
41.799999	85.398	154.1996
42.500000	85.376	153.3179
43.099998	85.357	152.5700
43.700001	85.338	151.8276
44.400002	85.316	150.9668
45.000000	85.296	150.2324
45.500000	85.279	149.6237
46.200001	85.255	148.7802
46.799999	85.233	148.0669
47.500000	85.208	147.2450
48.200001	85.182	146.4335
48.700001	85.163	145.8607
49.400002	85.137	145.0676
50.000000	85.114	144.3944
50.799999	85.084	143.5042
51.500000	85.057	142.7311
52.200001	85.029	141.9634
53.000000	84.995	141.0950
53.799999	84.962	140.2356
54.500000	84.932	139.4886
55.200001	84.902	138.7465
56.000000	84.868	137.9034
57.000000	84.824	136.8597
58.000000	84.782	135.8306
59.000000	84.740	134.7911
60.000000	84.692	133.7668
60.799999	84.652	132.9933
61.500000	84.620	132.3332
62.200001	84.590	131.6690
63.000000	84.553	130.9079
64.000000	84.506	129.9648
65.000000	84.458	129.0278
66.000000	84.409	128.0970
67.000000	84.358	127.1732
68.000000	84.308	126.2581
69.000000	84.258	125.3504
70.000000	84.208	124.4510
71.000000	84.158	123.5641
72.000000	84.108	122.6895
73.000000	84.057	121.8282
74.000000	84.005	120.9769
75.000000	83.954	120.1298
76.199997	83.890	119.1234
77.500000	83.820	118.0497
78.800003	83.751	116.9892
80.000000	83.687	116.0226
81.199997	83.623	115.0685
82.500000	83.553	114.0484
83.800003	83.481	113.0429
85.000000	83.414	112.1299
86.199997	83.348	111.2301
87.500000	83.275	110.2592
88.500000	83.218	109.5199
90.000000	83.132	108.4301
91.199997	83.064	107.5717
92.500000	82.989	106.6565
93.800003	82.915	105.7551
95.000000	82.845	104.9359
96.199997	82.776	104.1301
97.500000	82.700	103.2712
98.800003	82.624	102.4238
100.000000	82.554	101.6518
101.500000	82.464	100.7021
103.000000	82.373	99.7719
104.400002	82.287	98.9230
106.000000	82.188	97.9673
107.500000	82.094	97.0888
109.000000	81.998	96.2382
110.599998	81.895	95.3608
112.000000	81.804	94.6212
113.800003	81.683	93.7208
115.000000	81.602	93.1594
117.199997	81.449	92.2231
118.000000	81.393	91.9208
120.599998	81.217	91.1451
122.000000	81.134	90.8732
124.099998	81.047	90.6327
125.000000	81.030	90.5599
126.500000	81.035	90.3899
128.000000	81.076	90.0304
131.500000	81.186	88.0294
132.000000	81.190	87.6395
134.000000	81.168	86.0079
136.000000	81.093	84.4337
138.000000	80.992	83.0207
140.000000	80.877	81.7603
143.000000	80.700	80.1244
145.000000	80.584	79.1575
147.500000	80.446	78.0340
150.000000	80.315	76.9557
152.500000	80.190	75.9067
155.000000	80.065	74.8944
157.500000	79.939	73.9163
160.000000	79.816	72.9732
162.500000	79.693	72.0693
165.000000	79.573	71.1871
167.500000	79.455	70.3552
170.000000	79.337	69.5487
172.500000	79.223	68.7864
175.000000	79.107	68.0437
177.500000	78.996	67.3372
180.000000	78.885	66.6458
182.500000	78.774	66.0019
185.000000	78.665	65.3875
187.500000	78.557	64.8143
190.000000	78.453	64.2845
192.500000	78.352	63.7988
195.000000	78.256	63.3737
197.500000	78.168	62.9905
200.000000	78.087	62.6487
203.000000	78.009	62.2854
206.000000	77.955	61.8827
209.000000	77.916	61.3800
212.000000	77.882	60.7421
214.000000	77.854	60.2447
218.000000	77.777	59.1841
220.000000	77.729	58.6639
224.000000	77.624	57.6805
227.000000	77.539	56.9975
230.000000	77.452	56.3682
233.000000	77.366	55.7904
236.000000	77.282	55.2543
240.000000	77.173	54.5960
243.000000	77.094	54.1395
247.000000	76.994	53.5760
250.000000	76.923	53.1844
254.000000	76.833	52.6985
258.000000	76.749	52.2466
262.000000	76.675	51.8148
265.000000	76.626	51.4927
269.000000	76.567	51.0400
272.000000	76.525	50.6722
276.000000	76.467	50.1615
280.000000	76.405	49.6574
285.000000	76.321	49.0691
290.000000	76.234	48.5525
295.000000	76.149	48.1372
300.000000	76.073	47.8356
304.000000	76.021	47.6673
307.000000	75.992	47.5738
311.000000	75.972	47.4437
315.000000	75.972	47.2324
320.000000	75.984	46.7759
325.000000	75.984	46.1440
330.000000	75.961	45.4703
335.000000	75.923	44.8440
340.000000	75.878	44.2835
345.000000	75.832	43.7805
350.000000	75.788	43.3207
355.000000	75.748	42.8934
360.000000	75.710	42.4906
365.000000	75.674	42.1045
370.000000	75.641	41.7335
375.000000	75.611	41.3779
382.000000	75.572	40.9011
387.000000	75.545	40.5717
395.000000	75.506	40.0481
400.000000	75.483	39.7237
406.000000	75.458	39.3379
412.000000	75.433	38.9560
418.000000	75.411	38.5793
425.000000	75.387	38.1600
431.000000	75.366	37.8122
437.000000	75.346	37.4659
444.000000	75.324	37.0706
450.000000	75.305	36.7401
455.000000	75.290	36.4664
462.000000	75.270	36.0859
468.000000	75.254	35.7642
475.000000	75.235	35.3959
482.000000	75.216	35.0400
487.000000	75.203	34.7952
494.000000	75.185	34.4628
500.000000	75.170	34.1838
508.000000	75.150	33.8166
515.000000	75.134	33.4991
522.000000	75.117	33.1883
530.000000	75.098	32.8393
538.000000	75.079	32.5025
545.000000	75.061	32.2215
552.000000	75.043	31.9500
560.000000	75.022	31.6497
570.000000	74.997	31.2923
580.000000	74.972	30.9618
590.000000	74.947	30.6465
600.000000	74.922	30.3452
608.000000	74.903	30.1213
615.000000	74.885	29.9364
622.000000	74.868	29.7603
630.000000	74.848	29.5704
640.000000	74.823	29.3535
650.000000	74.799	29.1632
660.000000	74.775	28.9895
670.000000	74.752	28.8311
680.000000	74.731	28.6931
690.000000	74.711	28.5712
700.000000	74.691	28.4666
710.000000	74.672	28.3859
720.000000	74.655	28.3260
730.000000	74.638	28.2805
740.000000	74.623	28.2487
750.000000	74.610	28.2336
762.000000	74.597	28.2368
775.000000	74.586	28.2662
788.000000	74.578	28.3175
800.000000	74.574	28.3832
812.000000	74.573	28.4632
825.000000	74.576	28.5651
838.000000	74.584	28.6783
850.000000	74.594	28.7916
862.000000	74.608	28.9117
875.000000	74.627	29.0425
885.000000	74.645	29.1444
900.000000	74.676	29.2978
912.000000	74.705	29.4147
925.000000	74.739	29.5345
938.000000	74.777	29.6448
950.000000	74.816	29.7362
962.000000	74.856	29.8187
975.000000	74.903	29.8905
988.000000	74.953	29.9408
1000.000000	75.001	29.9710
1015.000000	75.064	29.9861
1030.000000	75.127	29.9726
1044.000000	75.186	29.9348
1060.000000	75.253	29.8634
1075.000000	75.316	29.7685
1090.000000	75.378	29.6504
1106.000000	75.443	29.5013
1120.000000	75.498	29.3513
1138.000000	75.565	29.1339
1150.000000	75.609	28.9772
1172.000000	75.684	28.6747
1180.000000	75.710	28.5611
1206.000000	75.789	28.1793
1220.000000	75.829	27.9689
1241.000000	75.884	27.6564
1250.000000	75.906	27.5244
1265.000000	75.941	27.3069
1280.000000	75.974	27.0958
1315.000000	76.046	26.6313
1320.000000	76.056	26.5691
1340.000000	76.094	26.3314
1360.000000	76.131	26.1100
1380.000000	76.167	25.9037
1400.000000	76.202	25.7153
1430.000000	76.255	25.4628
1450.000000	76.292	25.3110
1475.000000	76.340	25.1451
1500.000000	76.390	25.0030
1525.000000	76.442	24.8776
1550.000000	76.499	24.7648
1575.000000	76.560	24.6655
1600.000000	76.624	24.5717
1625.000000	76.693	24.4800
1650.000000	76.766	24.3869
1675.000000	76.845	24.2933
1700.000000	76.928	24.1971
1725.000000	77.017	24.0882
1750.000000	77.111	23.9623
1775.000000	77.210	23.8208
1800.000000	77.313	23.6598
1825.000000	77.422	23.4721
1850.000000	77.536	23.2549
1875.000000	77.654	23.0055
1900.000000	77.777	22.7200
1925.000000	77.903	22.3951
1950.000000	78.033	22.0288
1975.000000	78.164	21.6243
2000.000000	78.298	21.1805
2030.000000	78.463	20.5939
2060.000000	78.634	19.9426
2090.000000	78.809	19.2129
2120.000000	78.988	18.3901
2140.000000	79.109	17.7861
2180.000000	79.350	16.4429
2200.000000	79.470	15.7015
2240.000000	79.706	14.0736
2270.000000	79.877	12.7261
2300.000000	80.041	11.2717
2330.000000	80.196	9.7111
2360.000000	80.341	8.0492
2400.000000	80.514	5.6842
2430.000000	80.627	3.8066
2470.000000	80.753	1.1829
2500.000000	80.827	-0.8605
2540.000000	80.895	-3.6600
2580.000000	80.928	-6.5112
2620.000000	80.925	-9.3695
2650.000000	80.900	-11.4962
2690.000000	80.840	-14.2845
2720.000000	80.775	-16.3243
2760.000000	80.668	-18.9573
2800.000000	80.539	-21.4788
2850.000000	80.355	-24.4636
2900.000000	80.151	-27.2623
2950.000000	79.932	-29.8907
3000.000000	79.703	-32.3706
3040.000000	79.511	-34.2567
3070.000000	79.361	-35.6129
3110.000000	79.154	-37.3329
3150.000000	78.937	-38.9290
3200.000000	78.657	-40.7014
3250.000000	78.379	-42.1857
3300.000000	78.118	-43.3824
3350.000000	77.888	-44.3358
3400.000000	77.701	-45.1267
3450.000000	77.563	-45.8430
3500.000000	77.475	-46.5680
3550.000000	77.438	-47.3846
3600.000000	77.447	-48.3660
3650.000000	77.498	-49.5702
3700.000000	77.584	-51.0328
3750.000000	77.705	-52.7870
3820.000000	77.931	-55.8427
3870.000000	78.125	-58.5586
3950.000000	78.465	-64.0348
4000.000000	78.674	-68.2470
4060.000000	78.894	-74.1490
4120.000000	79.048	-80.9653
4180.000000	79.104	-88.6029
4250.000000	79.007	-98.2662
4310.000000	78.771	-106.8496
4370.000000	78.402	-115.3732
4440.000000	77.842	-124.9047
4500.000000	77.292	-132.5601
4550.000000	76.815	-138.5464
4620.000000	76.159	-146.3592
4680.000000	75.638	-152.5864
4750.000000	75.112	-159.3880
4820.000000	74.698	-165.7867
4870.000000	74.481	-170.1637
4940.000000	74.287	-176.0787
5000.000000	74.221	179.0394
5080.000000	74.269	172.8661
5150.000000	74.444	167.8259
5220.000000	74.750	163.0742
5300.000000	75.260	157.8289
5380.000000	75.925	152.5204
5450.000000	76.609	147.5696
5520.000000	77.352	142.0898
5600.000000	78.207	134.9191
5700.000000	79.142	124.4180
5800.000000	79.759	112.6390
5900.000000	79.961	100.7950
6000.000000	79.780	90.2693
6080.000000	79.438	83.4324
6150.000000	79.060	78.7553
6220.000000	78.661	75.2343
6300.000000	78.227	72.4271
6400.000000	77.767	70.3448
6500.000000	77.430	69.3901
6600.000000	77.224	69.1725
6700.000000	77.147	69.3950
6800.000000	77.191	69.8372
6900.000000	77.350	70.3321
7000.000000	77.619	70.7374
7100.000000	78.000	70.9100
7200.000000	78.492	70.6599
7300.000000	79.093	69.7288
7400.000000	79.787	67.7923
7500.000000	80.529	64.4487
7620.000000	81.361	58.0417
7750.000000	81.955	48.0107
7880.000000	81.978	36.0367
8000.000000	81.423	25.5151
8120.000000	80.437	17.3355
8250.000000	79.125	11.8171
8380.000000	77.797	9.3124
8500.000000	76.679	8.9500
8620.000000	75.714	9.8925
8750.000000	74.855	11.8765
8850.000000	74.327	13.8345
9000.000000	73.737	17.1116
9120.000000	73.421	19.7746
9250.000000	73.201	22.5179
9380.000000	73.075	25.0905
9500.000000	73.031	27.3698
9620.000000	73.062	29.5508
9750.000000	73.190	31.7007
9880.000000	73.417	33.4228
10000.000000	73.693	34.3638
10150.000000	74.048	34.4602
10300.000000	74.332	33.5802
10440.000000	74.501	32.2344
10600.000000	74.572	30.4146
10750.000000	74.517	28.7023
10900.000000	74.350	27.2549
11060.000000	74.069	26.2431
11200.000000	73.754	25.9323
11380.000000	73.279	26.5808
11500.000000	72.958	27.8201
11720.000000	72.490	31.3995
11800.000000	72.367	32.9567
12060.000000	72.141	38.5767
12200.000000	72.132	41.8368
12410.000000	72.270	46.8409
12500.000000	72.386	48.9877
12650.000000	72.656	52.5315
12800.000000	73.031	55.9944
13150.000000	74.407	63.3770
13200.000000	74.674	64.2849
13400.000000	75.972	67.2231
13600.000000	77.689	68.3208
13800.000000	79.801	65.8584
14000.000000	81.951	57.0287
14300.000000	83.676	28.9270
14500.000000	83.104	7.8815
14750.000000	80.910	-8.2219
15000.000000	78.355	-12.3376
15250.000000	76.342	-8.7271
15500.000000	75.369	0.1551
15750.000000	76.089	10.3923
16000.000000	78.040	14.6649
16250.000000	79.995	10.5868
16500.000000	81.642	0.8696
16750.000000	82.858	-14.1123
17000.000000	83.204	-33.8173
17250.000000	82.423	-53.2668
17500.000000	80.828	-67.4940
17750.000000	79.056	-76.5261
18000.000000	77.555	-83.3267
18250.000000	76.341	-90.5175
18500.000000	75.135	-98.8215
18750.000000	73.668	-106.8137
19000.000000	71.884	-112.0476
19250.000000	70.003	-113.0707
19500.000000	68.410	-110.6559
19750.000000	67.382	-107.2124
