* Measurement data measured by REW V5.20.13
* Source: EXCL: Headset (KM-HIFI-384KHZ), MICROPHONE (Master Volume), 0, volume: 1.000
* Format: 256k Log Swept Sine, 1 sweep at -24.0 dBFS with no timing reference
* Dated: Oct 27, 2023 9:02:12 PM
* REW Settings:
*  C-weighting compensation: Off
*  Target level: 75.0 dB
* Note: ; 
* Measurement: HD-560s Worn L
* Smoothing: 1/24 octave
* Frequency Step: 1/48 octave
* Start Frequency: 20.000 Hz
*
* Freq(Hz)	SPL(dB)	Phase(degrees)
20.000000	73.033	-97.2165
20.299999	73.103	-97.4969
20.600000	73.213	-97.6793
20.900000	73.362	-97.9026
21.200001	73.539	-98.2961
21.400000	73.660	-98.6938
21.799999	73.888	-99.7892
22.000000	73.983	-100.4438
22.400000	74.125	-101.8068
22.700001	74.196	-102.7288
23.000000	74.253	-103.4709
23.299999	74.317	-104.0581
23.600000	74.401	-104.5869
24.000000	74.541	-105.4027
24.299999	74.651	-106.2227
24.700001	74.768	-107.6062
25.000000	74.815	-108.7437
25.400000	74.817	-110.1472
25.799999	74.774	-111.1582
26.200001	74.732	-111.6748
26.500000	74.729	-111.8099
26.900000	74.782	-111.8457
27.200001	74.863	-111.9176
27.600000	75.005	-112.2190
28.000000	75.160	-112.8038
28.500000	75.334	-113.8354
29.000000	75.471	-114.9845
29.500000	75.578	-116.0734
30.000000	75.672	-117.0287
30.400000	75.748	-117.7134
30.700001	75.807	-118.2035
31.100000	75.889	-118.8595
31.500000	75.971	-119.5455
32.000000	76.064	-120.4624
32.500000	76.138	-121.4179
33.000000	76.190	-122.3441
33.500000	76.227	-123.1881
34.000000	76.260	-123.9512
34.500000	76.297	-124.6876
35.000000	76.338	-125.4565
35.500000	76.379	-126.2950
36.000000	76.413	-127.2054
36.500000	76.438	-128.1560
37.000000	76.452	-129.0806
37.500000	76.464	-129.9162
38.200001	76.507	-130.9297
38.700001	76.567	-131.6301
39.500000	76.704	-132.9219
40.000000	76.797	-133.8815
40.599998	76.893	-135.1671
41.200001	76.952	-136.4816
41.799999	76.967	-137.6016
42.500000	76.967	-138.4413
43.099998	76.994	-138.8596
43.700001	77.056	-139.2745
44.400002	77.142	-139.9640
45.000000	77.205	-140.7346
45.500000	77.244	-141.4540
46.200001	77.281	-142.5076
46.799999	77.306	-143.4241
47.500000	77.337	-144.5511
48.200001	77.362	-145.7635
48.700001	77.375	-146.6486
49.400002	77.385	-147.8927
50.000000	77.382	-148.9896
50.799999	77.338	-150.4414
51.500000	77.256	-151.5811
52.200001	77.132	-152.5555
53.000000	76.937	-153.4152
53.799999	76.689	-153.9079
54.500000	76.443	-153.9886
55.200001	76.184	-153.6577
56.000000	75.918	-152.7566
57.000000	75.695	-151.0231
58.000000	75.679	-148.9369
59.000000	75.880	-147.4888
60.000000	76.146	-147.0639
60.799999	76.338	-147.2748
61.500000	76.452	-147.6633
62.200001	76.518	-147.9153
63.000000	76.587	-147.9520
64.000000	76.692	-147.9985
65.000000	76.800	-148.2560
66.000000	76.895	-148.8054
67.000000	76.965	-149.5158
68.000000	77.018	-150.3080
69.000000	77.040	-151.0378
70.000000	77.049	-151.5042
71.000000	77.058	-151.7594
72.000000	77.068	-151.7531
73.000000	77.114	-151.5167
74.000000	77.210	-151.3945
75.000000	77.325	-151.5488
76.199997	77.479	-152.1015
77.500000	77.612	-153.1822
78.800003	77.701	-154.2481
80.000000	77.768	-155.2582
81.199997	77.804	-156.1592
82.500000	77.847	-157.0688
83.800003	77.864	-158.0981
85.000000	77.861	-158.9077
86.199997	77.874	-159.6931
87.500000	77.871	-160.7088
88.500000	77.837	-161.3723
90.000000	77.798	-162.0742
91.199997	77.773	-162.7424
92.500000	77.704	-163.4072
93.800003	77.637	-163.7781
95.000000	77.598	-164.0545
96.199997	77.574	-164.3406
97.500000	77.547	-164.7158
98.800003	77.500	-164.9387
100.000000	77.495	-164.8905
101.500000	77.557	-165.3606
103.000000	77.497	-166.3083
104.400002	77.398	-166.2769
106.000000	77.457	-166.2400
107.500000	77.477	-167.2133
109.000000	77.369	-167.8193
110.599998	77.305	-167.6420
112.000000	77.337	-167.6405
113.800003	77.351	-168.2289
115.000000	77.316	-168.6046
117.199997	77.259	-169.1285
118.000000	77.242	-169.3788
120.599998	77.160	-170.0037
122.000000	77.126	-170.1813
124.099998	77.068	-170.1829
125.000000	77.054	-170.0870
126.500000	77.059	-170.0068
128.000000	77.079	-170.1967
131.500000	77.080	-171.4220
132.000000	77.071	-171.6307
134.000000	77.001	-172.4193
136.000000	76.878	-172.9540
138.000000	76.733	-173.0737
140.000000	76.611	-172.8113
143.000000	76.508	-171.9875
145.000000	76.496	-171.3593
147.500000	76.533	-170.7179
150.000000	76.599	-170.3154
152.500000	76.655	-170.0161
155.000000	76.702	-169.7825
157.500000	76.721	-169.8597
160.000000	76.706	-170.1361
162.500000	76.691	-170.5107
165.000000	76.701	-170.9869
167.500000	76.728	-171.4356
170.000000	76.734	-171.5201
172.500000	76.702	-171.2625
175.000000	76.635	-171.1393
177.500000	76.580	-171.3432
180.000000	76.569	-171.6678
182.500000	76.575	-171.8444
185.000000	76.564	-171.8690
187.500000	76.542	-171.8511
190.000000	76.527	-171.8452
192.500000	76.510	-171.8441
195.000000	76.491	-171.8687
197.500000	76.474	-171.9409
200.000000	76.460	-172.0006
203.000000	76.444	-172.0497
206.000000	76.430	-172.0648
209.000000	76.411	-171.9704
212.000000	76.387	-171.8400
214.000000	76.376	-171.8057
218.000000	76.368	-171.8073
220.000000	76.364	-171.7866
224.000000	76.351	-171.7520
227.000000	76.342	-171.7147
230.000000	76.331	-171.6560
233.000000	76.316	-171.6315
236.000000	76.303	-171.6320
240.000000	76.296	-171.5897
243.000000	76.292	-171.5225
247.000000	76.283	-171.4485
250.000000	76.273	-171.4159
254.000000	76.261	-171.3456
258.000000	76.252	-171.2548
262.000000	76.239	-171.1927
265.000000	76.230	-171.1373
269.000000	76.222	-171.0177
272.000000	76.219	-170.9287
276.000000	76.214	-170.8275
280.000000	76.196	-170.7690
285.000000	76.177	-170.8481
290.000000	76.166	-170.8864
295.000000	76.151	-170.6140
300.000000	76.151	-170.3380
304.000000	76.148	-170.2169
307.000000	76.146	-170.1553
311.000000	76.142	-170.0547
315.000000	76.134	-169.9355
320.000000	76.123	-169.7739
325.000000	76.111	-169.5945
330.000000	76.104	-169.3887
335.000000	76.105	-169.1797
340.000000	76.104	-168.9847
345.000000	76.103	-168.8344
350.000000	76.103	-168.6917
355.000000	76.108	-168.5148
360.000000	76.110	-168.3461
365.000000	76.109	-168.2048
370.000000	76.110	-168.0458
375.000000	76.110	-167.8734
382.000000	76.115	-167.6326
387.000000	76.122	-167.4630
395.000000	76.129	-167.1878
400.000000	76.129	-167.0298
406.000000	76.128	-166.8428
412.000000	76.132	-166.6386
418.000000	76.137	-166.4319
425.000000	76.138	-166.1720
431.000000	76.142	-165.9178
437.000000	76.150	-165.6697
444.000000	76.164	-165.4265
450.000000	76.176	-165.2384
455.000000	76.183	-165.0632
462.000000	76.191	-164.7517
468.000000	76.201	-164.4631
475.000000	76.217	-164.1614
482.000000	76.238	-163.8628
487.000000	76.257	-163.6483
494.000000	76.290	-163.3655
500.000000	76.319	-163.1567
508.000000	76.357	-162.9020
515.000000	76.393	-162.6787
522.000000	76.429	-162.5051
530.000000	76.469	-162.3632
538.000000	76.508	-162.2472
545.000000	76.533	-162.1344
552.000000	76.558	-161.9635
560.000000	76.603	-161.7717
570.000000	76.673	-161.6528
580.000000	76.731	-161.7076
590.000000	76.786	-161.8794
600.000000	76.831	-162.2340
608.000000	76.841	-162.7153
615.000000	76.820	-163.2479
622.000000	76.754	-163.8204
630.000000	76.596	-164.3397
640.000000	76.285	-164.0576
650.000000	76.019	-162.1616
660.000000	75.994	-159.5664
670.000000	76.156	-157.6508
680.000000	76.349	-156.6290
690.000000	76.517	-156.0642
700.000000	76.663	-155.7794
710.000000	76.784	-155.6193
720.000000	76.890	-155.5217
730.000000	76.985	-155.5255
740.000000	77.065	-155.5804
750.000000	77.129	-155.6685
762.000000	77.180	-155.7857
775.000000	77.213	-155.7388
788.000000	77.249	-155.5601
800.000000	77.293	-155.3757
812.000000	77.345	-155.1945
825.000000	77.395	-155.0356
838.000000	77.438	-154.8237
850.000000	77.486	-154.5868
862.000000	77.540	-154.3582
875.000000	77.606	-154.0839
885.000000	77.671	-153.9308
900.000000	77.767	-153.9723
912.000000	77.808	-154.1437
925.000000	77.818	-154.1603
938.000000	77.842	-153.9931
950.000000	77.871	-153.8525
962.000000	77.898	-153.6525
975.000000	77.941	-153.4233
988.000000	77.986	-153.2715
1000.000000	78.019	-153.1341
1015.000000	78.062	-152.8544
1030.000000	78.121	-152.5744
1044.000000	78.179	-152.3995
1060.000000	78.242	-152.2176
1075.000000	78.309	-152.0518
1090.000000	78.373	-151.9446
1106.000000	78.432	-151.7922
1120.000000	78.492	-151.6246
1138.000000	78.569	-151.5437
1150.000000	78.619	-151.4695
1172.000000	78.725	-151.4127
1180.000000	78.764	-151.4544
1206.000000	78.859	-151.7187
1220.000000	78.869	-151.8008
1241.000000	78.918	-151.4163
1250.000000	78.972	-151.2523
1265.000000	79.072	-151.2501
1280.000000	79.150	-151.4908
1315.000000	79.220	-152.0850
1320.000000	79.231	-152.0944
1340.000000	79.295	-152.3346
1360.000000	79.298	-152.7601
1380.000000	79.300	-152.7205
1400.000000	79.357	-152.8729
1430.000000	79.366	-153.5518
1450.000000	79.317	-153.7729
1475.000000	79.257	-153.6345
1500.000000	79.273	-153.4595
1525.000000	79.208	-153.8829
1550.000000	79.063	-153.3568
1575.000000	79.035	-152.3711
1600.000000	79.035	-151.9802
1625.000000	78.960	-151.2343
1650.000000	78.985	-150.2334
1675.000000	79.007	-149.7635
1700.000000	78.935	-148.9966
1725.000000	78.937	-147.4352
1750.000000	79.030	-146.3422
1775.000000	79.081	-145.4004
1800.000000	79.155	-144.1896
1825.000000	79.264	-143.1484
1850.000000	79.365	-142.1337
1875.000000	79.491	-141.1618
1900.000000	79.610	-140.2345
1925.000000	79.749	-139.1449
1950.000000	79.933	-138.1064
1975.000000	80.133	-137.2251
2000.000000	80.353	-136.4870
2030.000000	80.599	-135.8621
2060.000000	80.858	-135.0762
2090.000000	81.166	-134.5646
2120.000000	81.455	-134.4572
2140.000000	81.641	-134.4078
2180.000000	82.022	-134.6322
2200.000000	82.183	-134.8963
2240.000000	82.490	-135.2158
2270.000000	82.725	-135.6095
2300.000000	82.943	-135.9752
2330.000000	83.194	-136.4289
2360.000000	83.424	-137.2891
2400.000000	83.648	-138.6017
2430.000000	83.760	-139.5512
2470.000000	83.853	-140.3652
2500.000000	83.935	-140.6489
2540.000000	84.071	-140.8223
2580.000000	84.227	-140.9439
2620.000000	84.399	-140.7695
2650.000000	84.581	-140.5070
2690.000000	84.895	-140.3211
2720.000000	85.170	-140.4722
2760.000000	85.538	-141.1395
2800.000000	85.896	-142.0791
2850.000000	86.350	-143.7410
2900.000000	86.774	-146.0988
2950.000000	87.086	-148.9790
3000.000000	87.323	-151.7444
3040.000000	87.498	-153.9886
3070.000000	87.607	-155.7684
3110.000000	87.709	-158.1848
3150.000000	87.761	-160.5825
3200.000000	87.775	-163.3292
3250.000000	87.774	-165.9116
3300.000000	87.727	-168.4500
3350.000000	87.655	-170.6703
3400.000000	87.582	-172.8096
3450.000000	87.519	-175.0087
3500.000000	87.385	-177.5712
3550.000000	87.145	-179.8746
3600.000000	86.826	178.3717
3650.000000	86.480	177.3499
3700.000000	86.149	176.7369
3750.000000	85.788	176.4937
3820.000000	85.214	177.7156
3870.000000	84.878	-179.6627
3950.000000	84.928	-173.4285
4000.000000	85.409	-170.3658
4060.000000	86.159	-169.0300
4120.000000	86.897	-170.0182
4180.000000	87.486	-172.7721
4250.000000	87.939	-177.1511
4310.000000	88.119	178.7405
4370.000000	88.137	174.8160
4440.000000	88.021	170.7987
4500.000000	87.840	167.9074
4550.000000	87.660	165.8823
4620.000000	87.377	163.5895
4680.000000	87.126	162.1282
4750.000000	86.843	160.9392
4820.000000	86.595	160.2576
4870.000000	86.453	159.9731
4940.000000	86.311	159.7253
5000.000000	86.238	159.5678
5080.000000	86.209	159.3654
5150.000000	86.251	159.0585
5220.000000	86.344	158.4794
5300.000000	86.494	157.4216
5380.000000	86.689	155.9186
5450.000000	86.903	154.0381
5520.000000	87.126	151.3802
5600.000000	87.336	147.2714
5700.000000	87.418	140.5348
5800.000000	87.137	132.6526
5900.000000	86.423	125.1661
6000.000000	85.347	119.4313
6080.000000	84.310	116.6361
6150.000000	83.336	115.7526
6220.000000	82.367	116.3933
6300.000000	81.361	118.8549
6400.000000	80.423	123.8616
6500.000000	79.984	129.4947
6600.000000	79.991	133.9681
6700.000000	80.217	136.2814
6800.000000	80.433	136.4127
6900.000000	80.487	135.0751
7000.000000	80.339	133.2664
7100.000000	80.026	131.6785
7200.000000	79.595	130.6255
7300.000000	79.087	130.2742
7400.000000	78.536	130.7227
7500.000000	77.970	132.0540
7620.000000	77.320	135.0792
7750.000000	76.814	140.1708
7880.000000	76.694	146.1623
8000.000000	76.941	151.4128
8120.000000	77.486	155.6983
8250.000000	78.334	158.8604
8380.000000	79.503	160.3428
8500.000000	80.907	158.9697
8620.000000	82.432	152.8922
8750.000000	83.717	138.9385
8850.000000	84.037	123.2595
9000.000000	82.952	97.8526
9120.000000	80.778	82.7552
9250.000000	77.533	75.2869
9380.000000	73.838	77.4857
9500.000000	70.438	87.9686
9620.000000	67.704	104.6640
9750.000000	66.395	124.2363
9880.000000	66.561	139.9728
10000.000000	67.162	150.0609
10150.000000	67.986	158.6167
10300.000000	68.903	164.2420
10440.000000	69.823	165.8194
10600.000000	70.376	161.6092
10750.000000	69.749	156.4320
10900.000000	68.156	159.0295
11060.000000	66.831	171.4120
11200.000000	66.972	-176.2899
11380.000000	68.205	-165.6958
11500.000000	69.090	-162.3658
11720.000000	70.423	-160.9086
11800.000000	70.831	-161.4584
12060.000000	71.470	-168.1619
12200.000000	70.965	-172.2424
12410.000000	69.122	-166.8507
12500.000000	68.627	-157.5731
12650.000000	70.029	-138.1198
12800.000000	72.982	-127.1208
13150.000000	77.074	-147.7251
13200.000000	77.213	-152.8745
13400.000000	76.784	-171.8903
13600.000000	75.093	176.2601
13800.000000	72.718	174.3042
14000.000000	70.425	-179.0655
14300.000000	68.500	-160.2180
14500.000000	68.649	-145.6916
14750.000000	70.274	-131.2273
15000.000000	72.391	-124.5292
15250.000000	74.322	-124.4014
15500.000000	75.872	-128.4039
15750.000000	77.102	-134.9641
16000.000000	77.878	-144.0869
16250.000000	78.019	-153.7860
16500.000000	77.722	-161.5039
16750.000000	77.318	-167.3754
17000.000000	76.883	-173.2568
17250.000000	76.148	-179.4366
17500.000000	74.973	176.7471
17750.000000	73.718	176.1736
18000.000000	72.574	176.6927
18250.000000	71.231	179.3785
18500.000000	69.838	-172.1057
18750.000000	69.393	-159.1824
19000.000000	70.279	-147.8755
19250.000000	71.794	-141.9453
19500.000000	73.235	-142.4124
19750.000000	74.139	-147.4331
