* Measurement data measured by REW V5.20.13
* Source: EXCL: Headset (KM-HIFI-384KHZ), MICROPHONE (Master Volume), 0, volume: 1.000
* Format: 256k Log Swept Sine, 1 sweep at -24.0 dBFS with no timing reference
* Dated: Oct 27, 2023 7:36:27 PM
* REW Settings:
*  C-weighting compensation: Off
*  Target level: 75.0 dB
* Note: ; 
* Measurement: HD-6XX Worn Stock R
* Smoothing: 1/24 octave
* Frequency Step: 1/48 octave
* Start Frequency: 20.000 Hz
*
* Freq(Hz)	SPL(dB)	Phase(degrees)
20.000000	71.207	-97.7797
20.299999	71.287	-98.7661
20.600000	71.353	-99.5203
20.900000	71.424	-100.0586
21.200001	71.512	-100.4675
21.400000	71.580	-100.7268
21.799999	71.726	-101.2750
22.000000	71.800	-101.5808
22.400000	71.935	-102.2407
22.700001	72.023	-102.7398
23.000000	72.098	-103.2106
23.299999	72.162	-103.6326
23.600000	72.215	-103.9828
24.000000	72.277	-104.2951
24.299999	72.326	-104.3928
24.700001	72.414	-104.3781
25.000000	72.506	-104.3522
25.400000	72.664	-104.4704
25.799999	72.834	-104.9113
26.200001	72.982	-105.6530
26.500000	73.067	-106.2911
26.900000	73.152	-107.0860
27.200001	73.209	-107.5775
27.600000	73.298	-108.1271
28.000000	73.411	-108.7002
28.500000	73.562	-109.6228
29.000000	73.690	-110.7102
29.500000	73.786	-111.7298
30.000000	73.877	-112.5488
30.400000	73.958	-113.0973
30.700001	74.025	-113.4823
31.100000	74.119	-113.9832
31.500000	74.217	-114.4742
32.000000	74.341	-115.0897
32.500000	74.461	-115.7374
33.000000	74.565	-116.3962
33.500000	74.652	-116.9788
34.000000	74.735	-117.4375
34.500000	74.829	-117.8525
35.000000	74.927	-118.3415
35.500000	75.012	-118.9280
36.000000	75.078	-119.5248
36.500000	75.131	-120.0544
37.000000	75.188	-120.5301
37.500000	75.253	-121.0298
38.200001	75.341	-121.8740
38.700001	75.387	-122.5332
39.500000	75.439	-123.3525
40.000000	75.498	-123.6504
40.599998	75.631	-124.0637
41.200001	75.800	-124.9501
41.799999	75.926	-126.2971
42.500000	75.980	-127.8160
43.099998	76.007	-128.6779
43.700001	76.075	-129.3458
44.400002	76.190	-130.3126
45.000000	76.274	-131.3425
45.500000	76.325	-132.2264
46.200001	76.378	-133.4456
46.799999	76.411	-134.5195
47.500000	76.424	-135.8480
48.200001	76.402	-137.2601
48.700001	76.357	-138.3038
49.400002	76.246	-139.7603
50.000000	76.099	-140.9615
50.799999	75.808	-142.3383
51.500000	75.446	-142.8871
52.200001	75.034	-142.3029
53.000000	74.632	-140.1545
53.799999	74.430	-136.9428
54.500000	74.471	-133.8743
55.200001	74.704	-131.2677
56.000000	75.087	-129.4921
57.000000	75.535	-128.8052
58.000000	75.920	-128.8688
59.000000	76.266	-129.5854
60.000000	76.514	-130.8271
60.799999	76.647	-131.8062
61.500000	76.738	-132.6114
62.200001	76.800	-133.3896
63.000000	76.830	-134.0760
64.000000	76.860	-134.4314
65.000000	76.939	-134.4835
66.000000	77.069	-134.6505
67.000000	77.200	-135.2081
68.000000	77.277	-135.8550
69.000000	77.349	-136.2413
70.000000	77.452	-136.6083
71.000000	77.560	-137.0657
72.000000	77.674	-137.5225
73.000000	77.793	-138.0353
74.000000	77.906	-138.5825
75.000000	78.019	-139.1300
76.199997	78.155	-139.9066
77.500000	78.284	-140.8876
78.800003	78.384	-142.0089
80.000000	78.436	-143.0092
81.199997	78.476	-143.8602
82.500000	78.520	-144.7219
83.800003	78.564	-145.5876
85.000000	78.599	-146.4093
86.199997	78.629	-147.2109
87.500000	78.650	-148.0309
88.500000	78.659	-148.5720
90.000000	78.668	-149.2670
91.199997	78.672	-149.7441
92.500000	78.685	-150.3274
93.800003	78.670	-151.0776
95.000000	78.633	-151.5761
96.199997	78.621	-151.8789
97.500000	78.642	-152.1524
98.800003	78.686	-152.4755
100.000000	78.722	-152.8042
101.500000	78.766	-153.1624
103.000000	78.813	-153.6266
104.400002	78.839	-154.1496
106.000000	78.858	-154.6750
107.500000	78.874	-155.1432
109.000000	78.894	-155.5540
110.599998	78.934	-156.1201
112.000000	78.966	-156.7568
113.800003	79.001	-157.5438
115.000000	79.020	-157.9724
117.199997	79.034	-158.2317
118.000000	79.052	-158.1694
120.599998	79.155	-158.8018
122.000000	79.127	-159.7031
124.099998	79.057	-160.7777
125.000000	79.045	-161.1948
126.500000	79.043	-161.8928
128.000000	79.038	-162.5806
131.500000	78.975	-163.7877
132.000000	78.966	-163.9509
134.000000	78.917	-164.7572
136.000000	78.812	-165.5377
138.000000	78.696	-165.9799
140.000000	78.581	-166.2741
143.000000	78.385	-165.7225
145.000000	78.339	-164.8582
147.500000	78.344	-164.1110
150.000000	78.401	-163.5789
152.500000	78.503	-163.2848
155.000000	78.610	-163.3862
157.500000	78.670	-164.0732
160.000000	78.700	-164.7959
162.500000	78.737	-165.2408
165.000000	78.778	-165.5610
167.500000	78.813	-166.1690
170.000000	78.819	-166.8966
172.500000	78.821	-167.2819
175.000000	78.817	-167.4821
177.500000	78.800	-167.7411
180.000000	78.785	-168.1946
182.500000	78.773	-168.7307
185.000000	78.773	-169.1647
187.500000	78.780	-169.5585
190.000000	78.768	-169.8832
192.500000	78.743	-170.0472
195.000000	78.719	-170.1732
197.500000	78.694	-170.4114
200.000000	78.667	-170.7960
203.000000	78.635	-171.2506
206.000000	78.602	-171.5280
209.000000	78.558	-171.7178
212.000000	78.533	-171.8773
214.000000	78.536	-172.0457
218.000000	78.516	-172.5455
220.000000	78.490	-172.7550
224.000000	78.464	-173.0504
227.000000	78.440	-173.2324
230.000000	78.404	-173.3935
233.000000	78.375	-173.5165
236.000000	78.347	-173.6138
240.000000	78.292	-173.7769
243.000000	78.252	-173.8764
247.000000	78.207	-173.9553
250.000000	78.178	-174.0663
254.000000	78.142	-174.1926
258.000000	78.092	-174.2426
262.000000	78.055	-174.2805
265.000000	78.038	-174.2312
269.000000	78.008	-174.1463
272.000000	77.985	-174.1858
276.000000	77.967	-174.2970
280.000000	77.950	-174.2819
285.000000	77.898	-174.1972
290.000000	77.854	-174.0762
295.000000	77.855	-173.9144
300.000000	77.849	-173.7892
304.000000	77.842	-173.7079
307.000000	77.834	-173.6655
311.000000	77.823	-173.6851
315.000000	77.814	-173.7385
320.000000	77.814	-173.7666
325.000000	77.802	-173.7388
330.000000	77.767	-173.7213
335.000000	77.735	-173.7546
340.000000	77.704	-173.7034
345.000000	77.689	-173.6221
350.000000	77.695	-173.6357
355.000000	77.693	-173.7070
360.000000	77.684	-173.7292
365.000000	77.669	-173.6632
370.000000	77.645	-173.4686
375.000000	77.618	-173.2245
382.000000	77.607	-173.0352
387.000000	77.612	-172.9930
395.000000	77.617	-172.9741
400.000000	77.609	-172.9609
406.000000	77.599	-172.8800
412.000000	77.583	-172.8072
418.000000	77.560	-172.7949
425.000000	77.530	-172.6921
431.000000	77.515	-172.5411
437.000000	77.501	-172.4611
444.000000	77.481	-172.3323
450.000000	77.457	-172.1217
455.000000	77.446	-171.9593
462.000000	77.450	-171.7012
468.000000	77.453	-171.4385
475.000000	77.455	-171.1866
482.000000	77.454	-171.0220
487.000000	77.451	-170.9555
494.000000	77.449	-170.8930
500.000000	77.453	-170.7723
508.000000	77.462	-170.5686
515.000000	77.463	-170.4101
522.000000	77.468	-170.2728
530.000000	77.475	-170.1376
538.000000	77.473	-170.0470
545.000000	77.465	-169.9167
552.000000	77.460	-169.7357
560.000000	77.465	-169.5042
570.000000	77.477	-169.2405
580.000000	77.478	-169.0324
590.000000	77.489	-168.8510
600.000000	77.490	-168.7211
608.000000	77.484	-168.5248
615.000000	77.488	-168.2905
622.000000	77.501	-168.0798
630.000000	77.511	-167.8970
640.000000	77.517	-167.6680
650.000000	77.534	-167.3988
660.000000	77.564	-167.1719
670.000000	77.592	-167.0285
680.000000	77.609	-166.8926
690.000000	77.625	-166.7110
700.000000	77.646	-166.5286
710.000000	77.672	-166.4413
720.000000	77.690	-166.4302
730.000000	77.704	-166.4084
740.000000	77.708	-166.3965
750.000000	77.699	-166.3506
762.000000	77.695	-166.2209
775.000000	77.698	-166.0832
788.000000	77.688	-166.0334
800.000000	77.665	-165.9567
812.000000	77.630	-165.8447
825.000000	77.584	-165.5694
838.000000	77.541	-165.2402
850.000000	77.482	-164.8801
862.000000	77.409	-164.2361
875.000000	77.370	-163.1710
885.000000	77.385	-162.2687
900.000000	77.473	-161.0739
912.000000	77.580	-160.3958
925.000000	77.702	-159.9594
938.000000	77.806	-159.7883
950.000000	77.875	-159.7466
962.000000	77.924	-159.6699
975.000000	77.968	-159.5479
988.000000	77.996	-159.3929
1000.000000	78.011	-159.1269
1015.000000	78.048	-158.6239
1030.000000	78.126	-158.1436
1044.000000	78.211	-157.8835
1060.000000	78.298	-157.6714
1075.000000	78.384	-157.5548
1090.000000	78.461	-157.5973
1106.000000	78.522	-157.7008
1120.000000	78.561	-157.7811
1138.000000	78.586	-157.8628
1150.000000	78.587	-157.8324
1172.000000	78.613	-157.4745
1180.000000	78.637	-157.3580
1206.000000	78.687	-157.1688
1220.000000	78.710	-156.9882
1241.000000	78.754	-156.6837
1250.000000	78.774	-156.5457
1265.000000	78.822	-156.3503
1280.000000	78.869	-156.2986
1315.000000	78.913	-156.1926
1320.000000	78.917	-156.1536
1340.000000	78.933	-155.9391
1360.000000	78.962	-155.6138
1380.000000	78.986	-155.4392
1400.000000	78.987	-155.1569
1430.000000	78.998	-154.3402
1450.000000	79.059	-153.5651
1475.000000	79.192	-153.0168
1500.000000	79.281	-152.9418
1525.000000	79.315	-152.6216
1550.000000	79.375	-152.0762
1575.000000	79.435	-151.4799
1600.000000	79.543	-150.8217
1625.000000	79.698	-150.4255
1650.000000	79.809	-150.6502
1675.000000	79.838	-150.5651
1700.000000	79.902	-150.2606
1725.000000	79.948	-150.1042
1750.000000	79.966	-149.5602
1775.000000	80.058	-148.8746
1800.000000	80.153	-148.5652
1825.000000	80.211	-148.1509
1850.000000	80.315	-147.5164
1875.000000	80.426	-147.3064
1900.000000	80.480	-146.9762
1925.000000	80.550	-146.4095
1950.000000	80.629	-145.7719
1975.000000	80.742	-144.9628
2000.000000	80.906	-144.3291
2030.000000	81.092	-144.0092
2060.000000	81.221	-143.7762
2090.000000	81.327	-143.2215
2120.000000	81.473	-142.2709
2140.000000	81.624	-141.6363
2180.000000	81.942	-141.0391
2200.000000	82.077	-140.7770
2240.000000	82.393	-140.1101
2270.000000	82.665	-139.8966
2300.000000	82.928	-139.8766
2330.000000	83.180	-139.9624
2360.000000	83.434	-140.0663
2400.000000	83.788	-140.3689
2430.000000	84.056	-140.8243
2470.000000	84.379	-141.6487
2500.000000	84.611	-142.2662
2540.000000	84.920	-143.2747
2580.000000	85.182	-144.5347
2620.000000	85.389	-145.5582
2650.000000	85.567	-146.1306
2690.000000	85.824	-147.0196
2720.000000	86.024	-147.6926
2760.000000	86.321	-148.7927
2800.000000	86.608	-150.2451
2850.000000	86.904	-152.4119
2900.000000	87.141	-154.3549
2950.000000	87.403	-156.1710
3000.000000	87.684	-158.2289
3040.000000	87.894	-160.0341
3070.000000	88.052	-161.4407
3110.000000	88.262	-163.4789
3150.000000	88.466	-165.7437
3200.000000	88.674	-169.0351
3250.000000	88.793	-172.4432
3300.000000	88.858	-175.8229
3350.000000	88.876	-179.1543
3400.000000	88.840	177.5737
3450.000000	88.764	174.5693
3500.000000	88.687	171.7417
3550.000000	88.611	168.8092
3600.000000	88.493	165.7141
3650.000000	88.316	162.6503
3700.000000	88.088	159.7599
3750.000000	87.821	157.0640
3820.000000	87.379	153.6710
3870.000000	87.028	151.6068
3950.000000	86.414	148.9415
4000.000000	86.013	147.7896
4060.000000	85.546	146.7972
4120.000000	85.070	146.1431
4180.000000	84.579	146.1048
4250.000000	84.052	146.9987
4310.000000	83.685	148.3598
4370.000000	83.420	150.1922
4440.000000	83.296	152.4380
4500.000000	83.306	154.0057
4550.000000	83.381	155.1087
4620.000000	83.600	155.9827
4680.000000	83.824	155.7170
4750.000000	84.009	154.4792
4820.000000	84.091	152.7725
4870.000000	84.080	151.5516
4940.000000	84.023	150.1991
5000.000000	83.985	149.2244
5080.000000	83.945	147.8779
5150.000000	83.911	146.6823
5220.000000	83.881	145.4328
5300.000000	83.859	144.0155
5380.000000	83.888	142.4061
5450.000000	83.943	140.4933
5520.000000	83.985	137.8984
5600.000000	83.945	134.1655
5700.000000	83.708	128.7518
5800.000000	83.207	122.9664
5900.000000	82.387	117.6197
6000.000000	81.267	113.9244
6080.000000	80.242	112.6270
6150.000000	79.317	112.7928
6220.000000	78.422	114.0206
6300.000000	77.477	116.4788
6400.000000	76.449	120.7547
6500.000000	75.607	125.9724
6600.000000	74.945	131.8333
6700.000000	74.465	138.3193
6800.000000	74.217	145.2814
6900.000000	74.239	152.2486
7000.000000	74.516	158.7589
7100.000000	75.035	164.4560
7200.000000	75.770	168.8820
7300.000000	76.637	171.4634
7400.000000	77.510	171.9876
7500.000000	78.288	170.6479
7620.000000	79.005	167.1692
7750.000000	79.451	162.1183
7880.000000	79.592	157.0297
8000.000000	79.570	152.8347
8120.000000	79.489	148.9200
8250.000000	79.353	144.5634
8380.000000	79.137	139.9461
8500.000000	78.867	135.4416
8620.000000	78.523	130.4733
8750.000000	77.996	124.4143
8850.000000	77.423	119.4810
9000.000000	76.223	112.4257
9120.000000	74.959	107.9282
9250.000000	73.327	104.9625
9380.000000	71.480	104.4981
9500.000000	69.637	106.8306
9620.000000	67.740	112.3655
9750.000000	65.798	122.3090
9880.000000	64.274	135.9122
10000.000000	63.520	150.4575
10150.000000	63.639	168.7937
10300.000000	64.743	-175.1876
10440.000000	66.340	-163.6260
10600.000000	68.533	-154.9818
10750.000000	70.793	-151.6620
10900.000000	72.982	-154.4730
11060.000000	74.550	-166.1191
11200.000000	74.680	179.4757
11380.000000	73.107	167.4028
11500.000000	71.491	166.9775
11720.000000	68.862	178.1267
11800.000000	68.247	-175.2818
12060.000000	68.441	-148.5895
12200.000000	70.307	-134.7264
12410.000000	74.181	-124.0462
12500.000000	75.729	-124.7197
12650.000000	77.755	-132.2773
12800.000000	78.937	-144.9473
13150.000000	78.898	-174.2737
13200.000000	78.690	-177.4365
13400.000000	77.659	172.3882
13600.000000	76.502	164.8965
13800.000000	75.320	158.8523
14000.000000	74.151	153.2551
14300.000000	72.361	143.8257
14500.000000	71.104	135.0664
14750.000000	69.354	114.3707
15000.000000	66.847	67.5636
15250.000000	63.862	-7.4649
15500.000000	64.082	-70.4011
15750.000000	66.020	-99.9050
16000.000000	67.593	-110.6516
16250.000000	69.253	-112.4598
16500.000000	71.855	-111.3091
16750.000000	74.962	-116.2286
17000.000000	77.077	-134.0835
17250.000000	77.189	-158.8245
17500.000000	75.468	-176.6057
17750.000000	72.715	177.7532
18000.000000	69.623	-175.6479
18250.000000	67.250	-159.2870
18500.000000	66.876	-141.7227
18750.000000	67.791	-130.3184
19000.000000	68.764	-125.8220
19250.000000	69.341	-125.9363
19500.000000	69.432	-128.2556
19750.000000	69.146	-130.8586
