* Measurement data measured by REW V5.20.13
* Source: EXCL: Headset (KM-HIFI-384KHZ), MICROPHONE (Master Volume), 0, volume: 1.000
* Format: 256k Log Swept Sine, 1 sweep at -20.0 dBFS with no timing reference
* Dated: Nov 11, 2023 11:14:11 PM
* REW Settings:
*  C-weighting compensation: Off
*  Target level: 75.0 dB
* Note: ; 
* Measurement: Kyle CA-800v1 No Tape L
* Smoothing: 1/24 octave
* Frequency Step: 1/48 octave
* Start Frequency: 20.000 Hz
*
* Freq(Hz)	SPL(dB)	Phase(degrees)
20.000000	84.196	-79.8896
20.299999	84.308	-80.9160
20.600000	84.419	-81.9144
20.900000	84.530	-82.8949
21.200001	84.639	-83.8654
21.400000	84.710	-84.5079
21.799999	84.848	-85.7787
22.000000	84.915	-86.4042
22.400000	85.044	-87.6293
22.700001	85.137	-88.5239
23.000000	85.229	-89.3995
23.299999	85.319	-90.2599
23.600000	85.407	-91.1077
24.000000	85.521	-92.2206
24.299999	85.604	-93.0421
24.700001	85.710	-94.1184
25.000000	85.787	-94.9105
25.400000	85.886	-95.9459
25.799999	85.981	-96.9565
26.200001	86.071	-97.9401
26.500000	86.137	-98.6588
26.900000	86.222	-99.5925
27.200001	86.285	-100.2766
27.600000	86.367	-101.1712
28.000000	86.447	-102.0497
28.500000	86.543	-103.1256
29.000000	86.637	-104.1740
29.500000	86.728	-105.1951
30.000000	86.817	-106.1957
30.400000	86.886	-106.9850
30.700001	86.937	-107.5706
31.100000	87.003	-108.3408
31.500000	87.067	-109.0976
32.000000	87.144	-110.0248
32.500000	87.220	-110.9341
33.000000	87.292	-111.8276
33.500000	87.362	-112.7052
34.000000	87.429	-113.5667
34.500000	87.493	-114.4127
35.000000	87.554	-115.2426
35.500000	87.611	-116.0538
36.000000	87.666	-116.8442
36.500000	87.717	-117.6124
37.000000	87.766	-118.3551
37.500000	87.813	-119.0674
38.200001	87.881	-120.0186
38.700001	87.932	-120.6867
39.500000	88.013	-121.7845
40.000000	88.059	-122.4796
40.599998	88.108	-123.2860
41.200001	88.156	-124.0482
41.799999	88.206	-124.7938
42.500000	88.265	-125.6754
43.099998	88.309	-126.4244
43.700001	88.352	-127.1404
44.400002	88.404	-127.9459
45.000000	88.450	-128.6425
45.500000	88.487	-129.2360
46.200001	88.535	-130.0739
46.799999	88.572	-130.7865
47.500000	88.613	-131.6104
48.200001	88.651	-132.4338
48.700001	88.677	-133.0271
49.400002	88.708	-133.8676
50.000000	88.732	-134.5926
50.799999	88.758	-135.5637
51.500000	88.775	-136.4302
52.200001	88.784	-137.3186
53.000000	88.780	-138.3398
53.799999	88.757	-139.3349
54.500000	88.720	-140.1550
55.200001	88.669	-140.8901
56.000000	88.595	-141.5872
57.000000	88.491	-142.2195
58.000000	88.385	-142.5532
59.000000	88.297	-142.5885
60.000000	88.245	-142.4233
60.799999	88.237	-142.2344
61.500000	88.256	-142.1123
62.200001	88.292	-142.1152
63.000000	88.337	-142.3134
64.000000	88.366	-142.7706
65.000000	88.351	-143.2502
66.000000	88.296	-143.4843
67.000000	88.242	-143.2831
68.000000	88.247	-142.7563
69.000000	88.330	-142.2871
70.000000	88.459	-142.1755
71.000000	88.589	-142.4377
72.000000	88.698	-142.9416
73.000000	88.780	-143.5514
74.000000	88.840	-144.1650
75.000000	88.885	-144.7432
76.199997	88.928	-145.4078
77.500000	88.958	-146.1125
78.800003	88.967	-146.7725
80.000000	88.958	-147.3031
81.199997	88.934	-147.7009
82.500000	88.903	-147.9249
83.800003	88.880	-147.9280
85.000000	88.879	-147.7734
86.199997	88.904	-147.5326
87.500000	88.964	-147.2726
88.500000	89.033	-147.1450
90.000000	89.157	-147.1584
91.199997	89.259	-147.3621
92.500000	89.355	-147.7029
93.800003	89.433	-148.0358
95.000000	89.502	-148.2499
96.199997	89.584	-148.4106
97.500000	89.693	-148.6788
98.800003	89.803	-149.1525
100.000000	89.890	-149.7417
101.500000	89.972	-150.5607
103.000000	90.030	-151.3705
104.400002	90.072	-152.0851
106.000000	90.108	-152.8439
107.500000	90.134	-153.4990
109.000000	90.155	-154.1075
110.599998	90.175	-154.7141
112.000000	90.190	-155.2096
113.800003	90.210	-155.8066
115.000000	90.223	-156.1894
117.199997	90.246	-156.8741
118.000000	90.255	-157.1184
120.599998	90.283	-157.8910
122.000000	90.302	-158.3095
124.099998	90.328	-158.9459
125.000000	90.338	-159.2187
126.500000	90.355	-159.6767
128.000000	90.369	-160.1450
131.500000	90.397	-161.3088
132.000000	90.400	-161.4850
134.000000	90.404	-162.2130
136.000000	90.395	-162.9581
138.000000	90.369	-163.6827
140.000000	90.330	-164.3623
143.000000	90.251	-165.2704
145.000000	90.187	-165.7819
147.500000	90.096	-166.3258
150.000000	89.987	-166.7419
152.500000	89.859	-166.8995
155.000000	89.737	-166.6850
157.500000	89.654	-166.1427
160.000000	89.632	-165.4838
162.500000	89.666	-164.9616
165.000000	89.726	-164.6937
167.500000	89.784	-164.6475
170.000000	89.831	-164.7340
172.500000	89.866	-164.8679
175.000000	89.891	-165.0013
177.500000	89.906	-165.1141
180.000000	89.921	-165.1956
182.500000	89.942	-165.2640
185.000000	89.966	-165.3178
187.500000	89.993	-165.3503
190.000000	90.023	-165.3836
192.500000	90.056	-165.4292
195.000000	90.092	-165.4926
197.500000	90.131	-165.5831
200.000000	90.169	-165.7025
203.000000	90.211	-165.8682
206.000000	90.249	-166.0259
209.000000	90.287	-166.1573
212.000000	90.331	-166.2756
214.000000	90.363	-166.3610
218.000000	90.433	-166.5770
220.000000	90.471	-166.7178
224.000000	90.545	-167.0917
227.000000	90.591	-167.4290
230.000000	90.629	-167.7595
233.000000	90.664	-168.0646
236.000000	90.700	-168.3656
240.000000	90.748	-168.7939
243.000000	90.782	-169.1489
247.000000	90.820	-169.6393
250.000000	90.842	-169.9974
254.000000	90.869	-170.4526
258.000000	90.892	-170.9218
262.000000	90.907	-171.3816
265.000000	90.914	-171.6881
269.000000	90.925	-172.0422
272.000000	90.939	-172.2936
276.000000	90.962	-172.6609
280.000000	90.982	-173.0601
285.000000	91.002	-173.5759
290.000000	91.008	-174.1222
295.000000	91.000	-174.5137
300.000000	91.015	-174.8266
304.000000	91.034	-175.1510
307.000000	91.046	-175.4205
311.000000	91.061	-175.7939
315.000000	91.073	-176.1855
320.000000	91.080	-176.7196
325.000000	91.074	-177.2430
330.000000	91.058	-177.7338
335.000000	91.030	-178.1203
340.000000	91.007	-178.3665
345.000000	91.005	-178.5660
350.000000	91.015	-178.8395
355.000000	91.023	-179.1841
360.000000	91.024	-179.5563
365.000000	91.020	-179.9074
370.000000	91.020	179.7524
375.000000	91.017	179.3753
382.000000	90.998	178.8699
387.000000	90.983	178.5778
395.000000	90.967	178.1783
400.000000	90.968	177.9339
406.000000	90.973	177.5467
412.000000	90.965	177.0836
418.000000	90.944	176.6991
425.000000	90.925	176.2963
431.000000	90.904	175.9410
437.000000	90.879	175.6600
444.000000	90.870	175.4118
450.000000	90.876	175.0897
455.000000	90.875	174.7201
462.000000	90.841	174.1847
468.000000	90.794	173.9360
475.000000	90.776	173.8442
482.000000	90.793	173.6066
487.000000	90.807	173.3102
494.000000	90.815	172.7939
500.000000	90.812	172.3063
508.000000	90.785	171.6050
515.000000	90.745	171.1393
522.000000	90.728	170.7274
530.000000	90.709	170.0441
538.000000	90.668	169.3420
545.000000	90.630	168.6780
552.000000	90.572	167.8886
560.000000	90.459	167.0237
570.000000	90.266	166.2617
580.000000	90.043	166.0779
590.000000	89.888	166.5682
600.000000	89.852	166.8775
608.000000	89.830	166.7107
615.000000	89.790	166.4764
622.000000	89.738	166.2324
630.000000	89.667	165.9525
640.000000	89.562	165.6945
650.000000	89.460	165.5481
660.000000	89.361	165.4106
670.000000	89.259	165.3018
680.000000	89.153	165.2264
690.000000	89.043	165.2298
700.000000	88.942	165.2997
710.000000	88.846	165.3536
720.000000	88.746	165.4258
730.000000	88.649	165.5342
740.000000	88.551	165.6116
750.000000	88.438	165.7188
762.000000	88.298	166.0557
775.000000	88.175	166.5293
788.000000	88.051	166.9476
800.000000	87.937	167.5143
812.000000	87.850	168.1193
825.000000	87.768	168.7348
838.000000	87.695	169.2661
850.000000	87.616	169.7289
862.000000	87.529	170.2216
875.000000	87.406	170.9221
885.000000	87.319	171.8035
900.000000	87.287	173.3678
912.000000	87.332	174.3424
925.000000	87.396	175.0391
938.000000	87.455	175.4642
950.000000	87.495	175.6897
962.000000	87.522	175.8075
975.000000	87.529	175.8525
988.000000	87.533	175.9440
1000.000000	87.543	175.8002
1015.000000	87.483	175.3122
1030.000000	87.325	175.1008
1044.000000	87.146	175.4456
1060.000000	86.956	176.3690
1075.000000	86.828	177.7773
1090.000000	86.822	179.2170
1106.000000	86.854	-179.9409
1120.000000	86.829	-179.4254
1138.000000	86.771	-178.4280
1150.000000	86.751	-177.6813
1172.000000	86.716	-176.1000
1180.000000	86.730	-175.3635
1206.000000	86.960	-173.8347
1220.000000	87.047	-174.0052
1241.000000	86.989	-174.3035
1250.000000	86.926	-174.1213
1265.000000	86.834	-173.3945
1280.000000	86.796	-172.4636
1315.000000	86.749	-170.7929
1320.000000	86.735	-170.5364
1340.000000	86.675	-169.3378
1360.000000	86.625	-167.7508
1380.000000	86.656	-165.7551
1400.000000	86.819	-164.0565
1430.000000	87.030	-163.1499
1450.000000	87.041	-162.6440
1475.000000	87.027	-161.1090
1500.000000	87.135	-159.3948
1525.000000	87.246	-158.1001
1550.000000	87.344	-156.7008
1575.000000	87.473	-155.1646
1600.000000	87.645	-153.8685
1625.000000	87.793	-152.8221
1650.000000	87.917	-151.7305
1675.000000	88.032	-150.4547
1700.000000	88.175	-148.8787
1725.000000	88.395	-147.3126
1750.000000	88.646	-146.1517
1775.000000	88.878	-145.2520
1800.000000	89.097	-144.3864
1825.000000	89.321	-143.5905
1850.000000	89.519	-142.9219
1875.000000	89.696	-141.9512
1900.000000	89.942	-140.7822
1925.000000	90.219	-139.9796
1950.000000	90.472	-139.2842
1975.000000	90.748	-138.4592
2000.000000	91.073	-137.8298
2030.000000	91.460	-137.5641
2060.000000	91.820	-137.5660
2090.000000	92.133	-137.7687
2120.000000	92.387	-137.7975
2140.000000	92.566	-137.5529
2180.000000	93.047	-137.1553
2200.000000	93.295	-137.4249
2240.000000	93.668	-138.1842
2270.000000	93.932	-138.3380
2300.000000	94.244	-138.4650
2330.000000	94.564	-138.9155
2360.000000	94.839	-139.5015
2400.000000	95.207	-139.9258
2430.000000	95.515	-140.3102
2470.000000	95.935	-140.8040
2500.000000	96.323	-141.1681
2540.000000	96.905	-142.6432
2580.000000	97.366	-145.2992
2620.000000	97.663	-147.9966
2650.000000	97.837	-149.6962
2690.000000	98.061	-151.5107
2720.000000	98.268	-152.6541
2760.000000	98.606	-154.3994
2800.000000	98.951	-156.7679
2850.000000	99.293	-160.3497
2900.000000	99.538	-164.1592
2950.000000	99.673	-168.0754
3000.000000	99.708	-171.6545
3040.000000	99.693	-174.2082
3070.000000	99.665	-175.8414
3110.000000	99.663	-177.6110
3150.000000	99.747	-179.4520
3200.000000	99.860	177.3378
3250.000000	99.839	173.5654
3300.000000	99.674	170.1731
3350.000000	99.487	167.3228
3400.000000	99.260	164.5934
3450.000000	99.005	162.2326
3500.000000	98.718	159.9751
3550.000000	98.368	158.0192
3600.000000	97.953	156.7813
3650.000000	97.565	156.4086
3700.000000	97.253	156.4788
3750.000000	97.005	156.6354
3820.000000	96.702	157.0229
3870.000000	96.520	157.5438
3950.000000	96.369	158.5674
4000.000000	96.338	158.7867
4060.000000	96.264	158.6703
4120.000000	96.138	158.7308
4180.000000	96.017	159.1382
4250.000000	95.927	159.9228
4310.000000	95.904	160.5479
4370.000000	95.886	160.9791
4440.000000	95.829	161.7097
4500.000000	95.810	162.8862
4550.000000	95.879	164.1124
4620.000000	96.097	165.4191
4680.000000	96.297	166.0786
4750.000000	96.553	166.9855
4820.000000	96.942	167.8846
4870.000000	97.296	168.0890
4940.000000	97.837	167.6084
5000.000000	98.340	166.5249
5080.000000	99.025	163.6929
5150.000000	99.550	159.9101
5220.000000	99.974	155.0531
5300.000000	100.249	148.2172
5380.000000	100.207	140.8215
5450.000000	99.919	134.7260
5520.000000	99.446	129.5469
5600.000000	98.786	124.9479
5700.000000	97.891	120.8326
5800.000000	96.987	118.1475
5900.000000	96.090	116.5922
6000.000000	95.227	116.0862
6080.000000	94.574	116.2961
6150.000000	94.034	116.8707
6220.000000	93.523	117.7943
6300.000000	92.988	119.2728
6400.000000	92.408	121.5682
6500.000000	91.920	124.2203
6600.000000	91.517	127.2557
6700.000000	91.230	130.7698
6800.000000	91.124	134.5171
6900.000000	91.228	137.9574
7000.000000	91.538	140.5587
7100.000000	92.010	141.7092
7200.000000	92.513	140.6729
7300.000000	92.854	137.3063
7400.000000	92.868	132.3378
7500.000000	92.462	127.2853
7620.000000	91.514	123.3784
7750.000000	90.232	122.8808
7880.000000	88.988	125.7405
8000.000000	87.990	130.5312
8120.000000	87.176	137.5989
8250.000000	86.757	147.8771
8380.000000	87.220	159.7538
8500.000000	88.746	169.6428
8620.000000	91.074	174.5148
8750.000000	93.601	170.0823
8850.000000	94.963	159.3612
9000.000000	95.601	136.5148
9120.000000	94.919	117.8743
9250.000000	93.134	101.5473
9380.000000	90.485	91.9382
9500.000000	87.521	90.3970
9620.000000	84.346	96.5262
9750.000000	81.254	110.0949
9880.000000	79.221	126.6037
10000.000000	78.323	141.2480
10150.000000	77.858	157.7419
10300.000000	77.771	174.5546
10440.000000	78.556	-168.0045
10600.000000	81.064	-150.6217
10750.000000	83.557	-145.8619
10900.000000	84.551	-151.1891
11060.000000	84.290	-152.0131
11200.000000	84.443	-145.6328
11380.000000	85.845	-137.0332
11500.000000	87.095	-133.9767
11720.000000	89.345	-134.1390
11800.000000	90.079	-135.7654
12060.000000	91.869	-145.3300
12200.000000	92.397	-151.4772
12410.000000	92.932	-159.4571
12500.000000	93.192	-162.6962
12650.000000	93.687	-169.3284
12800.000000	93.992	-178.8373
13150.000000	92.328	158.6843
13200.000000	91.866	157.2596
13400.000000	90.208	155.9011
13600.000000	89.450	155.8098
13800.000000	89.274	151.2064
14000.000000	88.919	140.6815
14300.000000	87.323	114.3566
14500.000000	85.674	84.4431
14750.000000	84.249	23.2146
15000.000000	85.437	-49.9427
15250.000000	86.754	-106.4128
15500.000000	86.405	-142.3365
15750.000000	84.411	-160.8522
16000.000000	81.460	-161.7998
16250.000000	79.044	-149.1570
16500.000000	78.670	-133.3293
16750.000000	79.877	-122.0488
17000.000000	81.378	-119.3113
17250.000000	82.228	-123.8817
17500.000000	82.218	-131.0669
17750.000000	81.384	-137.3159
18000.000000	79.741	-138.7753
18250.000000	77.587	-130.8372
18500.000000	76.153	-113.9081
18750.000000	76.666	-96.2424
19000.000000	78.261	-84.8134
19250.000000	79.886	-80.4033
19500.000000	81.131	-81.4799
19750.000000	81.813	-85.6572
