* Measurement data measured by REW V5.20.13
* Source: EXCL: Headset (KM-HIFI-384KHZ), MICROPHONE (Master Volume), 0, volume: 1.000
* Format: 256k Log Swept Sine, 1 sweep at -20.0 dBFS with no timing reference
* Dated: Nov 12, 2023 11:42:10 PM
* REW Settings:
*  C-weighting compensation: Off
*  Target level: 75.0 dB
* Note: ; 
* Measurement: Mich HD-800 Low-SN R
* Smoothing: 1/24 octave
* Frequency Step: 1/48 octave
* Start Frequency: 20.000 Hz
*
* Freq(Hz)	SPL(dB)	Phase(degrees)
20.000000	72.921	-119.7040
20.299999	72.972	-120.0967
20.600000	73.036	-120.4589
20.900000	73.112	-120.8556
21.200001	73.191	-121.3307
21.400000	73.241	-121.6881
21.799999	73.328	-122.4568
22.000000	73.366	-122.8439
22.400000	73.435	-123.5835
22.700001	73.487	-124.1168
23.000000	73.544	-124.6693
23.299999	73.603	-125.2785
23.600000	73.657	-125.9535
24.000000	73.715	-126.9278
24.299999	73.745	-127.6610
24.700001	73.770	-128.5725
25.000000	73.784	-129.1809
25.400000	73.804	-129.8916
25.799999	73.830	-130.5010
26.200001	73.867	-131.0105
26.500000	73.905	-131.3314
26.900000	73.975	-131.7126
27.200001	74.043	-132.0129
27.600000	74.146	-132.4974
28.000000	74.246	-133.0917
28.500000	74.347	-133.8666
29.000000	74.431	-134.4923
29.500000	74.525	-134.9748
30.000000	74.635	-135.5205
30.400000	74.714	-136.0914
30.700001	74.757	-136.5700
31.100000	74.790	-137.1809
31.500000	74.804	-137.6933
32.000000	74.812	-138.2029
32.500000	74.817	-138.6504
33.000000	74.812	-139.0334
33.500000	74.810	-139.2735
34.000000	74.840	-139.4308
34.500000	74.908	-139.7581
35.000000	74.984	-140.4318
35.500000	75.025	-141.3394
36.000000	75.024	-142.1832
36.500000	75.014	-142.7888
37.000000	75.026	-143.2263
37.500000	75.065	-143.6676
38.200001	75.130	-144.4200
38.700001	75.165	-144.9784
39.500000	75.207	-145.7249
40.000000	75.236	-146.1008
40.599998	75.276	-146.5414
41.200001	75.312	-147.0544
41.799999	75.327	-147.6222
42.500000	75.319	-148.2273
43.099998	75.305	-148.6600
43.700001	75.294	-149.0800
44.400002	75.285	-149.6103
45.000000	75.278	-150.1092
45.500000	75.270	-150.5612
46.200001	75.249	-151.1942
46.799999	75.226	-151.6366
47.500000	75.217	-152.0452
48.200001	75.221	-152.4874
48.700001	75.214	-152.8007
49.400002	75.194	-153.0467
50.000000	75.197	-153.0656
50.799999	75.243	-153.1477
51.500000	75.286	-153.4605
52.200001	75.302	-153.8885
53.000000	75.287	-154.3739
53.799999	75.241	-154.7682
54.500000	75.185	-154.9175
55.200001	75.142	-154.8710
56.000000	75.127	-154.7632
57.000000	75.132	-154.7065
58.000000	75.160	-154.6107
59.000000	75.228	-154.7009
60.000000	75.274	-155.1144
60.799999	75.281	-155.4230
61.500000	75.285	-155.6375
62.200001	75.286	-155.8675
63.000000	75.276	-156.1357
64.000000	75.253	-156.3877
65.000000	75.231	-156.5551
66.000000	75.212	-156.6743
67.000000	75.194	-156.7585
68.000000	75.174	-156.7847
69.000000	75.153	-156.7283
70.000000	75.133	-156.6071
71.000000	75.114	-156.3386
72.000000	75.126	-155.9127
73.000000	75.181	-155.5898
74.000000	75.244	-155.4860
75.000000	75.292	-155.4321
76.199997	75.354	-155.2294
77.500000	75.460	-154.9915
78.800003	75.586	-155.0099
80.000000	75.683	-155.2589
81.199997	75.747	-155.5495
82.500000	75.804	-155.7792
83.800003	75.864	-156.0089
85.000000	75.923	-156.2421
86.199997	75.988	-156.5204
87.500000	76.059	-156.9187
88.500000	76.107	-157.2812
90.000000	76.165	-157.8378
91.199997	76.203	-158.2897
92.500000	76.231	-158.7899
93.800003	76.241	-159.2144
95.000000	76.246	-159.5275
96.199997	76.249	-159.8082
97.500000	76.245	-160.0893
98.800003	76.237	-160.3064
100.000000	76.238	-160.4423
101.500000	76.259	-160.6883
103.000000	76.271	-161.0312
104.400002	76.271	-161.2636
106.000000	76.276	-161.3692
107.500000	76.297	-161.4130
109.000000	76.326	-161.4924
110.599998	76.366	-161.6479
112.000000	76.404	-161.9072
113.800003	76.441	-162.3303
115.000000	76.461	-162.5920
117.199997	76.498	-163.0065
118.000000	76.512	-163.1481
120.599998	76.548	-163.6530
122.000000	76.558	-163.9487
124.099998	76.564	-164.4462
125.000000	76.562	-164.6662
126.500000	76.557	-165.0154
128.000000	76.546	-165.3415
131.500000	76.490	-165.8372
132.000000	76.480	-165.8773
134.000000	76.437	-165.9951
136.000000	76.400	-166.0834
138.000000	76.371	-166.1718
140.000000	76.353	-166.1757
143.000000	76.363	-166.0424
145.000000	76.379	-165.9894
147.500000	76.388	-166.0063
150.000000	76.392	-166.0240
152.500000	76.416	-166.0591
155.000000	76.449	-166.1654
157.500000	76.483	-166.3135
160.000000	76.508	-166.5078
162.500000	76.521	-166.6794
165.000000	76.535	-166.8174
167.500000	76.551	-166.9958
170.000000	76.561	-167.1660
172.500000	76.571	-167.2920
175.000000	76.579	-167.4566
177.500000	76.582	-167.6284
180.000000	76.588	-167.7479
182.500000	76.600	-167.8587
185.000000	76.612	-167.9926
187.500000	76.621	-168.1499
190.000000	76.626	-168.3051
192.500000	76.628	-168.4363
195.000000	76.631	-168.5398
197.500000	76.640	-168.6471
200.000000	76.646	-168.7823
203.000000	76.647	-168.9574
206.000000	76.647	-169.1287
209.000000	76.648	-169.2649
212.000000	76.648	-169.3864
214.000000	76.649	-169.4783
218.000000	76.645	-169.6840
220.000000	76.638	-169.7518
224.000000	76.630	-169.7888
227.000000	76.633	-169.8329
230.000000	76.638	-169.9106
233.000000	76.641	-169.9947
236.000000	76.643	-170.0634
240.000000	76.640	-170.1360
243.000000	76.639	-170.2151
247.000000	76.641	-170.3606
250.000000	76.641	-170.4635
254.000000	76.633	-170.5661
258.000000	76.633	-170.6364
262.000000	76.636	-170.7087
265.000000	76.635	-170.7560
269.000000	76.631	-170.8235
272.000000	76.630	-170.8600
276.000000	76.632	-170.9381
280.000000	76.625	-171.0607
285.000000	76.607	-171.1583
290.000000	76.593	-171.1704
295.000000	76.589	-171.1381
300.000000	76.595	-171.1311
304.000000	76.602	-171.1965
307.000000	76.600	-171.2592
311.000000	76.590	-171.2988
315.000000	76.581	-171.2894
320.000000	76.579	-171.2448
325.000000	76.582	-171.2367
330.000000	76.584	-171.2423
335.000000	76.585	-171.2756
340.000000	76.580	-171.3391
345.000000	76.567	-171.3323
350.000000	76.561	-171.2550
355.000000	76.566	-171.2362
360.000000	76.566	-171.2958
365.000000	76.561	-171.3443
370.000000	76.556	-171.3429
375.000000	76.556	-171.3250
382.000000	76.550	-171.3227
387.000000	76.545	-171.2661
395.000000	76.546	-171.1893
400.000000	76.541	-171.1599
406.000000	76.536	-171.0748
412.000000	76.538	-171.0303
418.000000	76.537	-170.9968
425.000000	76.539	-170.9392
431.000000	76.543	-170.9191
437.000000	76.537	-170.8942
444.000000	76.526	-170.8437
450.000000	76.522	-170.7910
455.000000	76.517	-170.7222
462.000000	76.509	-170.6045
468.000000	76.508	-170.4716
475.000000	76.514	-170.2885
482.000000	76.526	-170.1218
487.000000	76.535	-170.0165
494.000000	76.550	-169.9324
500.000000	76.561	-169.9127
508.000000	76.568	-169.8773
515.000000	76.565	-169.8087
522.000000	76.565	-169.6834
530.000000	76.575	-169.5318
538.000000	76.582	-169.3878
545.000000	76.588	-169.2385
552.000000	76.602	-169.0909
560.000000	76.626	-168.9525
570.000000	76.655	-168.7813
580.000000	76.691	-168.6593
590.000000	76.728	-168.5992
600.000000	76.762	-168.5644
608.000000	76.782	-168.5962
615.000000	76.795	-168.6156
622.000000	76.809	-168.6296
630.000000	76.824	-168.6600
640.000000	76.837	-168.6688
650.000000	76.855	-168.6622
660.000000	76.869	-168.7095
670.000000	76.878	-168.7258
680.000000	76.887	-168.7394
690.000000	76.893	-168.7194
700.000000	76.906	-168.7455
710.000000	76.911	-168.8166
720.000000	76.909	-168.8479
730.000000	76.899	-168.7914
740.000000	76.904	-168.6236
750.000000	76.930	-168.5704
762.000000	76.946	-168.6503
775.000000	76.952	-168.7238
788.000000	76.949	-168.7936
800.000000	76.939	-168.8032
812.000000	76.930	-168.7702
825.000000	76.920	-168.6965
838.000000	76.918	-168.6555
850.000000	76.907	-168.6564
862.000000	76.888	-168.5897
875.000000	76.868	-168.3953
885.000000	76.860	-168.1978
900.000000	76.844	-167.8579
912.000000	76.845	-167.3269
925.000000	76.932	-166.6801
938.000000	77.085	-166.6094
950.000000	77.196	-167.1724
962.000000	77.233	-167.9358
975.000000	77.215	-168.6664
988.000000	77.154	-169.1999
1000.000000	77.090	-169.4218
1015.000000	77.041	-169.5672
1030.000000	76.996	-169.9540
1044.000000	76.887	-170.2786
1060.000000	76.752	-170.0275
1075.000000	76.703	-169.5618
1090.000000	76.690	-169.5305
1106.000000	76.602	-169.7997
1120.000000	76.460	-169.5890
1138.000000	76.369	-168.5681
1150.000000	76.384	-168.1291
1172.000000	76.362	-168.2784
1180.000000	76.300	-168.3053
1206.000000	76.130	-167.1864
1220.000000	76.123	-166.6363
1241.000000	76.089	-166.3870
1250.000000	76.043	-166.3084
1265.000000	75.947	-165.9600
1280.000000	75.861	-165.3794
1315.000000	75.684	-163.8995
1320.000000	75.653	-163.6244
1340.000000	75.558	-162.2383
1360.000000	75.548	-160.7824
1380.000000	75.563	-159.7241
1400.000000	75.557	-158.6952
1430.000000	75.517	-157.1707
1450.000000	75.516	-155.7732
1475.000000	75.546	-154.3761
1500.000000	75.574	-152.6092
1525.000000	75.643	-151.1979
1550.000000	75.673	-149.2543
1575.000000	75.821	-147.3812
1600.000000	75.969	-145.5446
1625.000000	76.219	-143.7789
1650.000000	76.524	-142.5728
1675.000000	76.785	-142.1693
1700.000000	76.987	-141.5905
1725.000000	77.226	-141.3203
1750.000000	77.380	-141.3523
1775.000000	77.502	-141.0488
1800.000000	77.638	-140.7037
1825.000000	77.749	-140.3089
1850.000000	77.882	-139.5713
1875.000000	78.070	-138.9000
1900.000000	78.279	-138.4348
1925.000000	78.513	-138.2679
1950.000000	78.723	-138.5930
1975.000000	78.850	-139.1667
2000.000000	78.889	-139.4081
2030.000000	78.965	-138.8875
2060.000000	79.137	-138.3401
2090.000000	79.342	-138.1491
2120.000000	79.531	-138.3944
2140.000000	79.612	-138.6916
2180.000000	79.693	-138.7335
2200.000000	79.741	-138.4565
2240.000000	79.900	-137.4954
2270.000000	80.137	-136.7554
2300.000000	80.416	-136.7186
2330.000000	80.647	-137.3367
2360.000000	80.772	-138.1258
2400.000000	80.869	-138.5507
2430.000000	80.957	-138.4367
2470.000000	81.109	-138.2684
2500.000000	81.225	-137.9799
2540.000000	81.453	-137.5451
2580.000000	81.705	-137.2766
2620.000000	81.984	-136.9908
2650.000000	82.258	-136.7301
2690.000000	82.731	-137.0321
2720.000000	83.083	-138.1062
2760.000000	83.445	-140.3196
2800.000000	83.678	-142.6779
2850.000000	83.890	-145.2659
2900.000000	84.107	-147.8178
2950.000000	84.312	-150.9958
3000.000000	84.348	-154.8226
3040.000000	84.248	-157.6044
3070.000000	84.129	-159.3933
3110.000000	83.945	-161.3643
3150.000000	83.759	-163.0992
3200.000000	83.495	-165.0965
3250.000000	83.175	-166.9548
3300.000000	82.711	-168.1324
3350.000000	82.232	-167.3459
3400.000000	82.034	-165.8016
3450.000000	81.993	-165.2100
3500.000000	81.920	-165.3527
3550.000000	81.779	-165.4181
3600.000000	81.676	-165.3312
3650.000000	81.582	-165.8512
3700.000000	81.344	-166.7210
3750.000000	80.948	-166.8408
3820.000000	80.329	-164.6910
3870.000000	80.023	-161.7732
3950.000000	79.929	-156.7242
4000.000000	79.999	-154.2822
4060.000000	80.073	-151.6001
4120.000000	80.207	-148.6249
4180.000000	80.450	-145.7633
4250.000000	80.826	-142.8309
4310.000000	81.204	-140.7813
4370.000000	81.602	-138.9685
4440.000000	82.146	-137.0529
4500.000000	82.686	-135.8584
4550.000000	83.179	-135.3011
4620.000000	83.902	-135.4866
4680.000000	84.467	-136.7054
4750.000000	84.980	-138.8299
4820.000000	85.343	-140.9281
4870.000000	85.554	-142.0716
4940.000000	85.878	-143.1887
5000.000000	86.205	-144.1592
5080.000000	86.631	-145.7679
5150.000000	86.995	-147.0763
5220.000000	87.410	-148.2628
5300.000000	87.991	-149.7960
5380.000000	88.681	-152.1753
5450.000000	89.304	-155.3136
5520.000000	89.899	-159.4535
5600.000000	90.487	-165.5137
5700.000000	90.949	-174.8700
5800.000000	90.974	174.7628
5900.000000	90.528	165.2184
6000.000000	89.772	157.9781
6080.000000	89.119	153.8765
6150.000000	88.582	151.0069
6220.000000	88.068	148.5036
6300.000000	87.485	146.0276
6400.000000	86.748	143.4947
6500.000000	85.985	141.7957
6600.000000	85.234	141.1797
6700.000000	84.571	141.6052
6800.000000	84.051	142.6467
6900.000000	83.681	144.1658
7000.000000	83.529	145.9232
7100.000000	83.638	147.1653
7200.000000	83.970	147.1135
7300.000000	84.444	145.0829
7400.000000	84.921	140.4646
7500.000000	85.220	133.1330
7620.000000	85.130	121.4709
7750.000000	84.271	107.4019
7880.000000	82.564	95.4382
8000.000000	80.478	88.5322
8120.000000	78.301	84.7419
8250.000000	76.097	80.8068
8380.000000	73.898	72.1155
8500.000000	71.495	52.5454
8620.000000	68.953	11.9200
8750.000000	69.438	-50.8608
8850.000000	72.059	-92.8729
9000.000000	75.365	-132.5795
9120.000000	76.895	-153.5204
9250.000000	77.512	-172.0662
9380.000000	77.178	173.1848
9500.000000	76.190	164.2640
9620.000000	74.820	160.6439
9750.000000	73.266	162.2421
9880.000000	71.996	168.4228
10000.000000	71.376	176.5775
10150.000000	71.573	-172.9413
10300.000000	72.555	-166.3586
10440.000000	73.459	-165.8489
10600.000000	73.819	-170.2914
10750.000000	73.125	-174.1504
10900.000000	71.585	-168.7875
11060.000000	71.110	-151.6773
11200.000000	72.518	-140.2985
11380.000000	74.131	-137.9327
11500.000000	74.725	-138.7640
11720.000000	75.539	-139.1093
11800.000000	75.835	-139.1398
12060.000000	76.770	-139.8500
12200.000000	77.316	-140.4994
12410.000000	78.204	-142.9009
12500.000000	78.557	-144.5215
12650.000000	79.106	-147.6545
12800.000000	79.657	-151.2353
13150.000000	80.897	-164.1057
13200.000000	81.004	-166.6436
13400.000000	81.087	-177.4904
13600.000000	80.655	172.6270
13800.000000	79.932	165.5189
14000.000000	79.281	161.0126
14300.000000	78.944	154.7037
14500.000000	79.075	146.8741
14750.000000	78.959	128.2822
15000.000000	77.497	98.4282
15250.000000	73.854	56.3423
15500.000000	67.959	-12.6852
15750.000000	63.426	-93.8035
16000.000000	64.046	-134.7434
16250.000000	64.910	-143.3357
16500.000000	65.661	-142.3352
16750.000000	66.582	-141.1964
17000.000000	67.729	-143.9875
17250.000000	68.517	-154.2437
17500.000000	68.221	-168.7642
17750.000000	66.865	179.9585
18000.000000	65.011	175.1384
18250.000000	63.217	175.6152
18500.000000	61.654	-179.6722
18750.000000	60.388	-170.0242
19000.000000	59.900	-156.0758
19250.000000	60.503	-141.9429
19500.000000	61.553	-132.3080
19750.000000	62.236	-127.9971
