* Measurement data measured by REW V5.20.13
* Source: EXCL: Headset (KM-HIFI-384KHZ), MICROPHONE (Master Volume), 0, volume: 1.000
* Format: 256k Log Swept Sine, 1 sweep at -20.0 dBFS with no timing reference
* Dated: Nov 12, 2023 11:40:21 PM
* REW Settings:
*  C-weighting compensation: Off
*  Target level: 75.0 dB
* Note: ; 
* Measurement: Mich HD-580 BS R
* Smoothing: 1/24 octave
* Frequency Step: 1/48 octave
* Start Frequency: 20.000 Hz
*
* Freq(Hz)	SPL(dB)	Phase(degrees)
20.000000	62.988	-58.5192
20.299999	63.220	-59.2044
20.600000	63.427	-60.1676
20.900000	63.592	-61.1574
21.200001	63.731	-61.8784
21.400000	63.838	-62.1531
21.799999	64.126	-62.4387
22.000000	64.315	-62.6340
22.400000	64.751	-63.5987
22.700001	65.057	-64.9930
23.000000	65.274	-66.8083
23.299999	65.376	-68.5758
23.600000	65.383	-69.8175
24.000000	65.348	-70.1354
24.299999	65.408	-69.4721
24.700001	65.704	-68.2723
25.000000	66.054	-67.9721
25.400000	66.532	-69.0248
25.799999	66.837	-71.3972
26.200001	66.894	-73.8940
26.500000	66.813	-75.1086
26.900000	66.665	-75.4557
27.200001	66.618	-74.9938
27.600000	66.700	-74.1688
28.000000	66.884	-73.9043
28.500000	67.080	-74.4833
29.000000	67.174	-75.0888
29.500000	67.279	-75.1310
30.000000	67.497	-75.1851
30.400000	67.713	-75.7788
30.700001	67.856	-76.5784
31.100000	67.987	-77.8402
31.500000	68.060	-79.0006
32.000000	68.122	-80.0630
32.500000	68.196	-80.7911
33.000000	68.287	-81.3078
33.500000	68.406	-81.5773
34.000000	68.588	-81.7147
34.500000	68.832	-82.1167
35.000000	69.075	-83.0430
35.500000	69.251	-84.2824
36.000000	69.358	-85.3701
36.500000	69.446	-86.0934
37.000000	69.559	-86.6270
37.500000	69.693	-87.2296
38.200001	69.866	-88.2690
38.700001	69.970	-89.0232
39.500000	70.123	-90.1680
40.000000	70.213	-90.8529
40.599998	70.323	-91.6074
41.200001	70.449	-92.3564
41.799999	70.580	-93.2452
42.500000	70.700	-94.3858
43.099998	70.779	-95.1679
43.700001	70.877	-95.7306
44.400002	71.032	-96.4629
45.000000	71.155	-97.3671
45.500000	71.216	-98.2053
46.200001	71.230	-99.1615
46.799999	71.198	-99.5266
47.500000	71.166	-99.2988
48.200001	71.207	-98.5644
48.700001	71.301	-98.0507
49.400002	71.479	-97.7956
50.000000	71.611	-98.0105
50.799999	71.737	-98.4020
51.500000	71.866	-98.6969
52.200001	72.034	-99.3495
53.000000	72.202	-100.7324
53.799999	72.304	-102.2739
54.500000	72.383	-103.4112
55.200001	72.494	-104.4334
56.000000	72.649	-105.6668
57.000000	72.825	-107.2042
58.000000	72.991	-108.3376
59.000000	73.168	-109.4200
60.000000	73.249	-110.5876
60.799999	73.238	-111.1340
61.500000	73.209	-111.3431
62.200001	73.163	-111.4030
63.000000	73.090	-111.2232
64.000000	73.006	-110.5640
65.000000	72.989	-109.4694
66.000000	73.100	-108.3834
67.000000	73.279	-107.8746
68.000000	73.454	-107.6773
69.000000	73.647	-107.6222
70.000000	73.836	-107.8554
71.000000	73.999	-108.1761
72.000000	74.171	-108.4867
73.000000	74.360	-109.0124
74.000000	74.543	-109.7729
75.000000	74.717	-110.7042
76.199997	74.898	-112.0115
77.500000	75.051	-113.3712
78.800003	75.193	-114.5583
80.000000	75.317	-115.6293
81.199997	75.427	-116.6387
82.500000	75.541	-117.6872
83.800003	75.632	-118.7087
85.000000	75.698	-119.5075
86.199997	75.763	-120.1785
87.500000	75.839	-120.8839
88.500000	75.898	-121.4574
90.000000	75.988	-122.3723
91.199997	76.062	-123.1486
92.500000	76.140	-124.0077
93.800003	76.210	-124.7995
95.000000	76.272	-125.4441
96.199997	76.332	-126.0664
97.500000	76.387	-126.7507
98.800003	76.432	-127.4079
100.000000	76.478	-127.9915
101.500000	76.547	-128.7820
103.000000	76.613	-129.6030
104.400002	76.667	-130.2753
106.000000	76.734	-130.9318
107.500000	76.794	-131.5546
109.000000	76.851	-132.1953
110.599998	76.911	-132.9594
112.000000	76.957	-133.6812
113.800003	77.008	-134.5440
115.000000	77.045	-135.0578
117.199997	77.120	-135.9781
118.000000	77.146	-136.3383
120.599998	77.207	-137.5877
122.000000	77.234	-138.2634
124.099998	77.271	-139.3064
125.000000	77.283	-139.7333
126.500000	77.303	-140.4084
128.000000	77.318	-141.0919
131.500000	77.319	-142.6338
132.000000	77.316	-142.8526
134.000000	77.283	-143.6753
136.000000	77.219	-144.2532
138.000000	77.153	-144.4303
140.000000	77.141	-144.3608
143.000000	77.228	-144.5271
145.000000	77.298	-144.9207
147.500000	77.368	-145.5684
150.000000	77.416	-146.4058
152.500000	77.444	-147.2539
155.000000	77.468	-148.0054
157.500000	77.473	-148.7209
160.000000	77.453	-149.3686
162.500000	77.434	-149.9470
165.000000	77.423	-150.4441
167.500000	77.425	-150.8492
170.000000	77.438	-151.2572
172.500000	77.452	-151.7042
175.000000	77.461	-152.1965
177.500000	77.454	-152.6713
180.000000	77.445	-153.0345
182.500000	77.450	-153.3678
185.000000	77.458	-153.7583
187.500000	77.461	-154.1686
190.000000	77.464	-154.5774
192.500000	77.465	-155.0070
195.000000	77.460	-155.4273
197.500000	77.450	-155.7927
200.000000	77.440	-156.1531
203.000000	77.423	-156.6361
206.000000	77.404	-157.0925
209.000000	77.390	-157.4587
212.000000	77.377	-157.7859
214.000000	77.369	-157.9957
218.000000	77.353	-158.3691
220.000000	77.338	-158.5322
224.000000	77.313	-158.8476
227.000000	77.309	-159.0970
230.000000	77.305	-159.3428
233.000000	77.289	-159.5907
236.000000	77.272	-159.8446
240.000000	77.251	-160.1705
243.000000	77.238	-160.3452
247.000000	77.219	-160.6085
250.000000	77.197	-160.8079
254.000000	77.174	-160.9938
258.000000	77.157	-161.1760
262.000000	77.133	-161.3549
265.000000	77.118	-161.4655
269.000000	77.103	-161.6073
272.000000	77.093	-161.6779
276.000000	77.082	-161.7560
280.000000	77.068	-161.8770
285.000000	77.055	-162.0337
290.000000	77.045	-162.1681
295.000000	77.038	-162.2586
300.000000	77.033	-162.3642
304.000000	77.027	-162.4774
307.000000	77.020	-162.5697
311.000000	77.007	-162.6915
315.000000	76.995	-162.7925
320.000000	76.980	-162.8448
325.000000	76.972	-162.8671
330.000000	76.967	-162.8873
335.000000	76.959	-162.9324
340.000000	76.950	-163.0103
345.000000	76.942	-163.0619
350.000000	76.934	-163.0779
355.000000	76.925	-163.1108
360.000000	76.915	-163.1551
365.000000	76.903	-163.1583
370.000000	76.893	-163.1445
375.000000	76.888	-163.1527
382.000000	76.878	-163.1803
387.000000	76.871	-163.1532
395.000000	76.868	-163.1241
400.000000	76.864	-163.1283
406.000000	76.856	-163.1226
412.000000	76.844	-163.1060
418.000000	76.829	-163.0702
425.000000	76.820	-163.0041
431.000000	76.819	-162.9644
437.000000	76.814	-162.9167
444.000000	76.811	-162.8246
450.000000	76.802	-162.7452
455.000000	76.793	-162.6820
462.000000	76.783	-162.5928
468.000000	76.776	-162.4911
475.000000	76.767	-162.3535
482.000000	76.760	-162.2322
487.000000	76.759	-162.1521
494.000000	76.756	-162.0594
500.000000	76.748	-161.9848
508.000000	76.734	-161.8349
515.000000	76.722	-161.6543
522.000000	76.711	-161.4177
530.000000	76.713	-161.0858
538.000000	76.728	-160.7714
545.000000	76.740	-160.5329
552.000000	76.757	-160.3199
560.000000	76.779	-160.1293
570.000000	76.799	-159.9178
580.000000	76.818	-159.7142
590.000000	76.833	-159.5909
600.000000	76.843	-159.4554
608.000000	76.845	-159.2959
615.000000	76.841	-159.1157
622.000000	76.837	-158.9059
630.000000	76.838	-158.6196
640.000000	76.843	-158.2296
650.000000	76.859	-157.8049
660.000000	76.886	-157.3705
670.000000	76.929	-156.9380
680.000000	76.987	-156.5831
690.000000	77.039	-156.3183
700.000000	77.083	-156.1091
710.000000	77.125	-155.9683
720.000000	77.162	-155.8476
730.000000	77.191	-155.6912
740.000000	77.219	-155.4781
750.000000	77.257	-155.2301
762.000000	77.305	-154.9845
775.000000	77.353	-154.7988
788.000000	77.390	-154.6195
800.000000	77.419	-154.4047
812.000000	77.453	-154.1568
825.000000	77.500	-153.9112
838.000000	77.564	-153.6841
850.000000	77.625	-153.5387
862.000000	77.686	-153.5201
875.000000	77.730	-153.6915
885.000000	77.741	-153.9130
900.000000	77.700	-154.2008
912.000000	77.612	-154.1414
925.000000	77.486	-153.4534
938.000000	77.426	-152.0861
950.000000	77.490	-150.7070
962.000000	77.622	-149.7043
975.000000	77.781	-149.0991
988.000000	77.921	-148.7879
1000.000000	78.033	-148.5451
1015.000000	78.173	-148.3410
1030.000000	78.302	-148.3946
1044.000000	78.380	-148.5362
1060.000000	78.442	-148.4709
1075.000000	78.538	-148.2579
1090.000000	78.661	-148.3374
1106.000000	78.732	-148.7530
1120.000000	78.728	-148.9399
1138.000000	78.754	-148.6055
1150.000000	78.812	-148.4725
1172.000000	78.873	-148.6339
1180.000000	78.872	-148.6172
1206.000000	78.897	-147.9057
1220.000000	78.965	-147.3842
1241.000000	79.123	-147.0056
1250.000000	79.184	-147.0676
1265.000000	79.252	-147.2208
1280.000000	79.305	-147.1807
1315.000000	79.466	-147.1391
1320.000000	79.483	-147.1752
1340.000000	79.538	-147.3036
1360.000000	79.583	-147.4034
1380.000000	79.611	-147.4679
1400.000000	79.630	-147.3571
1430.000000	79.622	-147.0496
1450.000000	79.635	-146.2806
1475.000000	79.766	-145.5047
1500.000000	79.919	-145.2166
1525.000000	80.009	-145.2326
1550.000000	80.079	-144.7944
1575.000000	80.208	-144.6074
1600.000000	80.281	-144.4367
1625.000000	80.392	-144.1148
1650.000000	80.507	-143.9118
1675.000000	80.605	-143.8988
1700.000000	80.687	-143.5986
1725.000000	80.838	-143.5766
1750.000000	80.922	-144.0117
1775.000000	80.945	-144.1074
1800.000000	80.981	-143.9577
1825.000000	80.990	-143.7296
1850.000000	81.007	-143.0000
1875.000000	81.115	-142.1953
1900.000000	81.253	-141.7923
1925.000000	81.356	-141.5702
1950.000000	81.463	-141.2364
1975.000000	81.578	-141.0637
2000.000000	81.654	-141.0642
2030.000000	81.704	-140.8080
2060.000000	81.736	-140.3179
2090.000000	81.734	-139.0951
2120.000000	81.864	-137.1890
2140.000000	82.025	-135.9836
2180.000000	82.490	-134.0858
2200.000000	82.760	-133.5828
2240.000000	83.306	-133.4794
2270.000000	83.653	-134.1623
2300.000000	83.914	-134.9839
2330.000000	84.122	-135.6772
2360.000000	84.313	-136.0945
2400.000000	84.585	-136.5609
2430.000000	84.791	-136.8633
2470.000000	85.060	-137.1779
2500.000000	85.314	-137.1662
2540.000000	85.756	-137.6690
2580.000000	86.175	-139.2940
2620.000000	86.438	-141.3726
2650.000000	86.568	-142.6330
2690.000000	86.734	-143.7630
2720.000000	86.896	-144.4096
2760.000000	87.162	-145.3441
2800.000000	87.453	-146.6577
2850.000000	87.791	-148.5484
2900.000000	88.141	-150.7296
2950.000000	88.458	-153.4915
3000.000000	88.676	-156.5652
3040.000000	88.801	-158.8923
3070.000000	88.887	-160.5797
3110.000000	88.991	-162.8962
3150.000000	89.061	-165.2925
3200.000000	89.086	-168.0725
3250.000000	89.118	-170.4250
3300.000000	89.213	-172.8224
3350.000000	89.306	-175.8578
3400.000000	89.306	-179.2402
3450.000000	89.214	177.5432
3500.000000	89.080	174.6958
3550.000000	88.949	172.0333
3600.000000	88.808	169.2847
3650.000000	88.621	166.5006
3700.000000	88.392	163.7984
3750.000000	88.116	161.2166
3820.000000	87.658	157.9913
3870.000000	87.294	155.8677
3950.000000	86.556	152.9641
4000.000000	85.994	152.1722
4060.000000	85.345	152.6508
4120.000000	84.837	154.0122
4180.000000	84.452	155.7482
4250.000000	84.165	158.1116
4310.000000	84.054	160.0142
4370.000000	84.032	161.7063
4440.000000	84.126	163.2830
4500.000000	84.279	163.9648
4550.000000	84.415	164.0375
4620.000000	84.599	163.4613
4680.000000	84.707	162.2794
4750.000000	84.705	160.5453
4820.000000	84.584	159.0092
4870.000000	84.442	158.2348
4940.000000	84.222	157.8175
5000.000000	84.059	157.9191
5080.000000	83.893	158.5611
5150.000000	83.842	159.4751
5220.000000	83.885	160.3328
5300.000000	84.022	161.0664
5380.000000	84.221	161.3397
5450.000000	84.425	161.3147
5520.000000	84.671	161.0180
5600.000000	84.992	160.2354
5700.000000	85.465	158.4773
5800.000000	85.985	155.3523
5900.000000	86.476	150.4294
6000.000000	86.804	143.2991
6080.000000	86.807	136.2250
6150.000000	86.558	129.6620
6220.000000	86.065	123.3663
6300.000000	85.226	117.1749
6400.000000	83.850	111.8370
6500.000000	82.261	109.8498
6600.000000	80.666	111.3055
6700.000000	79.287	115.6154
6800.000000	78.298	121.4155
6900.000000	77.685	127.3689
7000.000000	77.324	132.9416
7100.000000	77.139	138.1259
7200.000000	77.097	142.8010
7300.000000	77.141	146.9743
7400.000000	77.252	150.9453
7500.000000	77.475	154.9073
7620.000000	77.967	159.3583
7750.000000	78.799	162.8598
7880.000000	79.828	163.9880
8000.000000	80.810	162.5797
8120.000000	81.711	158.9108
8250.000000	82.524	152.7600
8380.000000	83.137	144.5809
8500.000000	83.473	135.0653
8620.000000	83.446	123.6723
8750.000000	82.820	110.6180
8850.000000	81.893	101.7563
9000.000000	80.005	92.4183
9120.000000	78.345	88.2407
9250.000000	76.605	85.8064
9380.000000	74.957	84.3255
9500.000000	73.395	83.5550
9620.000000	71.653	84.4127
9750.000000	69.573	88.9050
9880.000000	67.570	97.6236
10000.000000	66.107	108.3080
10150.000000	65.015	123.1893
10300.000000	64.709	137.9307
10440.000000	64.949	150.6520
10600.000000	65.747	164.2114
10750.000000	67.224	176.0693
10900.000000	69.666	-174.7140
11060.000000	72.657	-173.8821
11200.000000	74.366	175.3304
11380.000000	74.503	155.7377
11500.000000	73.701	146.9054
11720.000000	71.909	139.4526
11800.000000	71.315	137.7800
12060.000000	69.250	132.1512
12200.000000	67.713	129.7543
12410.000000	64.336	135.4308
12500.000000	62.541	145.8599
12650.000000	60.612	173.9052
12800.000000	61.959	-160.7026
13150.000000	65.208	-154.9659
13200.000000	65.222	-156.5402
13400.000000	64.347	-158.6645
13600.000000	62.976	-147.5905
13800.000000	63.907	-128.5592
14000.000000	66.336	-121.0089
14300.000000	68.285	-131.8058
14500.000000	68.603	-142.4497
14750.000000	68.291	-159.0135
15000.000000	66.702	176.0797
15250.000000	63.049	130.1089
15500.000000	59.798	43.5175
15750.000000	63.724	-30.0190
16000.000000	67.939	-58.8775
16250.000000	71.383	-72.5419
16500.000000	74.247	-87.3435
16750.000000	75.935	-108.7161
17000.000000	75.931	-132.0018
17250.000000	74.391	-147.4051
17500.000000	72.145	-151.2024
17750.000000	70.151	-147.1791
18000.000000	68.784	-139.4978
18250.000000	67.997	-129.9572
18500.000000	67.825	-119.6014
18750.000000	68.337	-110.3627
19000.000000	69.297	-104.9113
19250.000000	70.168	-104.8898
19500.000000	70.500	-109.0061
19750.000000	70.254	-113.8628
