* Measurement data measured by REW V5.20.13
* Source: EXCL: Headset (KM-HIFI-384KHZ), MICROPHONE (Master Volume), 0, volume: 1.000
* Format: 256k Log Swept Sine, 1 sweep at -20.0 dBFS with no timing reference
* Dated: Nov 11, 2023 10:59:57 PM
* REW Settings:
*  C-weighting compensation: Off
*  Target level: 75.0 dB
* Note: ; 
* Measurement: Poke 300ohm Philphone L
* Smoothing: 1/24 octave
* Frequency Step: 1/48 octave
* Start Frequency: 20.000 Hz
*
* Freq(Hz)	SPL(dB)	Phase(degrees)
20.000000	87.808	-69.1614
20.299999	87.957	-70.2126
20.600000	88.102	-71.2473
20.900000	88.242	-72.2610
21.200001	88.379	-73.2510
21.400000	88.468	-73.8986
21.799999	88.645	-75.1675
22.000000	88.733	-75.7915
22.400000	88.905	-77.0243
22.700001	89.033	-77.9397
23.000000	89.158	-78.8499
23.299999	89.281	-79.7555
23.600000	89.401	-80.6556
24.000000	89.555	-81.8435
24.299999	89.667	-82.7203
24.700001	89.812	-83.8646
25.000000	89.918	-84.7023
25.400000	90.057	-85.7955
25.799999	90.194	-86.8721
26.200001	90.329	-87.9440
26.500000	90.427	-88.7472
26.900000	90.553	-89.8129
27.200001	90.644	-90.6012
27.600000	90.759	-91.6277
28.000000	90.871	-92.6212
28.500000	91.010	-93.8259
29.000000	91.147	-95.0140
29.500000	91.281	-96.2029
30.000000	91.409	-97.3898
30.400000	91.507	-98.3273
30.700001	91.579	-99.0189
31.100000	91.672	-99.9261
31.500000	91.764	-100.8213
32.000000	91.877	-101.9338
32.500000	91.986	-103.0436
33.000000	92.090	-104.1442
33.500000	92.190	-105.2267
34.000000	92.286	-106.2877
34.500000	92.380	-107.3303
35.000000	92.471	-108.3584
35.500000	92.560	-109.3740
36.000000	92.647	-110.3797
36.500000	92.732	-111.3784
37.000000	92.814	-112.3739
37.500000	92.894	-113.3680
38.200001	92.998	-114.7573
38.700001	93.066	-115.7418
39.500000	93.167	-117.2804
40.000000	93.226	-118.2155
40.599998	93.294	-119.3228
41.200001	93.358	-120.4255
41.799999	93.415	-121.5124
42.500000	93.473	-122.7327
43.099998	93.519	-123.7323
43.700001	93.563	-124.6986
44.400002	93.610	-125.7817
45.000000	93.649	-126.6575
45.500000	93.682	-127.3478
46.200001	93.735	-128.2753
46.799999	93.786	-129.0670
47.500000	93.851	-130.0225
48.200001	93.914	-131.0219
48.700001	93.956	-131.7553
49.400002	94.011	-132.7969
50.000000	94.054	-133.6993
50.799999	94.103	-134.9111
51.500000	94.138	-135.9622
52.200001	94.168	-136.9905
53.000000	94.199	-138.1473
53.799999	94.226	-139.3076
54.500000	94.243	-140.3286
55.200001	94.252	-141.3388
56.000000	94.254	-142.4626
57.000000	94.245	-143.8187
58.000000	94.221	-145.1004
59.000000	94.184	-146.2681
60.000000	94.139	-147.3140
60.799999	94.100	-148.0466
61.500000	94.067	-148.6153
62.200001	94.037	-149.1449
63.000000	94.002	-149.7235
64.000000	93.950	-150.3693
65.000000	93.894	-150.8298
66.000000	93.854	-151.0599
67.000000	93.853	-151.1586
68.000000	93.895	-151.2996
69.000000	93.966	-151.6241
70.000000	94.046	-152.1799
71.000000	94.117	-152.9216
72.000000	94.171	-153.7732
73.000000	94.209	-154.6688
74.000000	94.231	-155.5529
75.000000	94.245	-156.3796
76.199997	94.264	-157.3112
77.500000	94.290	-158.3475
78.800003	94.306	-159.4456
80.000000	94.307	-160.4785
81.199997	94.292	-161.4864
82.500000	94.263	-162.5075
83.800003	94.227	-163.4205
85.000000	94.196	-164.1863
86.199997	94.168	-164.9155
87.500000	94.136	-165.6620
88.500000	94.112	-166.2010
90.000000	94.076	-166.9641
91.199997	94.050	-167.5535
92.500000	94.025	-168.1983
93.800003	93.999	-168.8668
95.000000	93.973	-169.5015
96.199997	93.943	-170.1397
97.500000	93.908	-170.8177
98.800003	93.869	-171.4682
100.000000	93.831	-172.0312
101.500000	93.781	-172.6752
103.000000	93.731	-173.2549
104.400002	93.688	-173.7582
106.000000	93.641	-174.3152
107.500000	93.600	-174.8344
109.000000	93.561	-175.3566
110.599998	93.521	-175.9161
112.000000	93.485	-176.4091
113.800003	93.438	-177.0563
115.000000	93.403	-177.4993
117.199997	93.331	-178.3160
118.000000	93.301	-178.6060
120.599998	93.191	-179.4948
122.000000	93.124	-179.9079
124.099998	93.019	179.5889
125.000000	92.976	179.4148
126.500000	92.910	179.1667
128.000000	92.858	178.9269
131.500000	92.756	178.1610
132.000000	92.740	178.0219
134.000000	92.661	177.4015
136.000000	92.545	176.7367
138.000000	92.379	176.2157
140.000000	92.178	176.1237
143.000000	91.928	177.0127
145.000000	91.863	177.8981
147.500000	91.876	178.7203
150.000000	91.926	179.0608
152.500000	91.972	179.0360
155.000000	91.995	178.8128
157.500000	91.998	178.5087
160.000000	91.987	178.1710
162.500000	91.964	177.8384
165.000000	91.934	177.5112
167.500000	91.896	177.1513
170.000000	91.842	176.8417
172.500000	91.783	176.6068
175.000000	91.728	176.4459
177.500000	91.675	176.2085
180.000000	91.607	176.0471
182.500000	91.547	176.0158
185.000000	91.494	176.0083
187.500000	91.442	176.0070
190.000000	91.396	176.0151
192.500000	91.356	176.0120
195.000000	91.316	176.0095
197.500000	91.274	176.0085
200.000000	91.234	176.0074
203.000000	91.189	176.0115
206.000000	91.146	176.0380
209.000000	91.105	176.0617
212.000000	91.064	176.0781
214.000000	91.036	176.0986
218.000000	90.985	176.1730
220.000000	90.962	176.1956
224.000000	90.914	176.2242
227.000000	90.874	176.2480
230.000000	90.834	176.2936
233.000000	90.797	176.3624
236.000000	90.763	176.4175
240.000000	90.716	176.5002
243.000000	90.682	176.5789
247.000000	90.637	176.6925
250.000000	90.605	176.7820
254.000000	90.564	176.9067
258.000000	90.527	177.0300
262.000000	90.489	177.1389
265.000000	90.457	177.2313
269.000000	90.417	177.3948
272.000000	90.393	177.5267
276.000000	90.363	177.6594
280.000000	90.327	177.7525
285.000000	90.277	177.8819
290.000000	90.228	178.0308
295.000000	90.179	178.1694
300.000000	90.129	178.3143
304.000000	90.089	178.4770
307.000000	90.062	178.6210
311.000000	90.027	178.8336
315.000000	89.994	179.0743
320.000000	89.959	179.4268
325.000000	89.931	179.8296
330.000000	89.913	-179.8950
335.000000	89.874	-179.6628
340.000000	89.801	-179.3332
345.000000	89.770	-179.0408
350.000000	89.769	-178.7124
355.000000	89.757	-178.3665
360.000000	89.742	-178.0071
365.000000	89.719	-177.6375
370.000000	89.700	-177.3101
375.000000	89.685	-177.0267
382.000000	89.671	-176.6361
387.000000	89.663	-176.3416
395.000000	89.652	-175.8781
400.000000	89.649	-175.6249
406.000000	89.648	-175.3840
412.000000	89.639	-175.2216
418.000000	89.621	-175.0381
425.000000	89.583	-174.9088
431.000000	89.503	-174.7856
437.000000	89.390	-174.2650
444.000000	89.301	-173.2493
450.000000	89.298	-172.3701
455.000000	89.316	-171.7712
462.000000	89.342	-171.1211
468.000000	89.362	-170.6235
475.000000	89.385	-170.1119
482.000000	89.402	-169.5887
487.000000	89.416	-169.1830
494.000000	89.443	-168.6623
500.000000	89.464	-168.3098
508.000000	89.481	-167.8288
515.000000	89.498	-167.3218
522.000000	89.523	-166.8411
530.000000	89.552	-166.3677
538.000000	89.584	-165.8229
545.000000	89.615	-165.3120
552.000000	89.656	-164.8723
560.000000	89.702	-164.4822
570.000000	89.752	-164.0676
580.000000	89.801	-163.6514
590.000000	89.845	-163.3411
600.000000	89.861	-163.2012
608.000000	89.840	-163.0905
615.000000	89.801	-162.8340
622.000000	89.758	-162.3257
630.000000	89.727	-161.4514
640.000000	89.754	-160.1693
650.000000	89.849	-159.1286
660.000000	89.952	-158.4519
670.000000	90.028	-157.9253
680.000000	90.086	-157.3202
690.000000	90.153	-156.6092
700.000000	90.246	-155.9359
710.000000	90.354	-155.4006
720.000000	90.456	-155.0464
730.000000	90.524	-154.8740
740.000000	90.544	-154.5501
750.000000	90.573	-153.7272
762.000000	90.708	-152.5873
775.000000	90.917	-151.9131
788.000000	91.100	-151.6893
800.000000	91.235	-151.6107
812.000000	91.352	-151.4952
825.000000	91.481	-151.4402
838.000000	91.593	-151.5267
850.000000	91.674	-151.5861
862.000000	91.740	-151.5865
875.000000	91.800	-151.4897
885.000000	91.847	-151.3422
900.000000	91.932	-151.0479
912.000000	92.013	-150.8449
925.000000	92.103	-150.7259
938.000000	92.178	-150.6076
950.000000	92.248	-150.4341
962.000000	92.324	-150.2989
975.000000	92.393	-150.1732
988.000000	92.464	-149.9139
1000.000000	92.554	-149.6752
1015.000000	92.672	-149.5514
1030.000000	92.774	-149.4870
1044.000000	92.871	-149.3882
1060.000000	92.990	-149.3576
1075.000000	93.090	-149.3779
1090.000000	93.195	-149.3130
1106.000000	93.335	-149.3939
1120.000000	93.452	-149.7701
1138.000000	93.521	-150.6061
1150.000000	93.476	-150.8447
1172.000000	93.513	-149.7504
1180.000000	93.598	-149.5291
1206.000000	93.840	-149.8138
1220.000000	93.930	-150.1541
1241.000000	94.037	-150.6873
1250.000000	94.073	-150.9316
1265.000000	94.110	-151.3169
1280.000000	94.129	-151.5321
1315.000000	94.239	-151.6750
1320.000000	94.258	-151.7245
1340.000000	94.315	-151.9294
1360.000000	94.359	-151.8860
1380.000000	94.440	-151.7142
1400.000000	94.559	-151.6952
1430.000000	94.752	-152.3441
1450.000000	94.814	-153.0456
1475.000000	94.827	-153.5695
1500.000000	94.871	-153.6875
1525.000000	94.951	-153.8217
1550.000000	95.050	-154.0864
1575.000000	95.161	-154.4328
1600.000000	95.287	-154.9623
1625.000000	95.425	-155.7670
1650.000000	95.535	-157.0295
1675.000000	95.577	-158.4448
1700.000000	95.585	-159.7318
1725.000000	95.596	-161.1237
1750.000000	95.556	-162.7758
1775.000000	95.465	-164.3334
1800.000000	95.367	-166.0129
1825.000000	95.196	-168.1500
1850.000000	94.862	-170.2461
1875.000000	94.395	-171.4763
1900.000000	93.886	-171.8482
1925.000000	93.335	-171.3628
1950.000000	92.779	-169.6592
1975.000000	92.331	-166.8928
2000.000000	92.038	-163.7161
2030.000000	91.876	-159.6064
2060.000000	91.948	-155.7368
2090.000000	92.181	-152.9387
2120.000000	92.425	-151.4031
2140.000000	92.542	-150.8152
2180.000000	92.694	-149.6505
2200.000000	92.785	-149.0938
2240.000000	92.967	-148.5789
2270.000000	93.083	-148.7245
2300.000000	93.140	-149.5848
2330.000000	93.036	-151.0148
2360.000000	92.707	-152.1900
2400.000000	91.992	-151.8273
2430.000000	91.368	-149.5854
2470.000000	90.637	-143.6649
2500.000000	90.361	-137.6238
2540.000000	90.474	-129.0870
2580.000000	91.068	-121.6870
2620.000000	91.849	-116.7345
2650.000000	92.395	-114.2610
2690.000000	93.040	-111.6085
2720.000000	93.517	-109.6141
2760.000000	94.252	-107.1570
2800.000000	95.035	-105.6951
2850.000000	95.956	-105.0347
2900.000000	96.820	-105.1013
2950.000000	97.630	-106.1216
3000.000000	98.308	-107.7876
3040.000000	98.764	-109.1487
3070.000000	99.091	-110.0405
3110.000000	99.536	-111.2347
3150.000000	99.981	-112.6536
3200.000000	100.504	-114.7253
3250.000000	101.016	-117.0023
3300.000000	101.524	-119.8311
3350.000000	101.935	-123.4838
3400.000000	102.197	-127.2087
3450.000000	102.392	-130.7195
3500.000000	102.539	-134.1361
3550.000000	102.641	-137.5488
3600.000000	102.698	-140.9449
3650.000000	102.714	-144.4161
3700.000000	102.661	-148.0889
3750.000000	102.486	-151.6758
3820.000000	102.104	-155.6995
3870.000000	101.817	-158.0190
3950.000000	101.295	-161.3059
4000.000000	100.916	-162.7787
4060.000000	100.462	-163.9136
4120.000000	100.030	-164.5590
4180.000000	99.621	-164.9163
4250.000000	99.133	-164.9170
4310.000000	98.729	-164.3098
4370.000000	98.383	-163.3650
4440.000000	98.023	-162.1035
4500.000000	97.729	-160.7615
4550.000000	97.503	-159.3439
4620.000000	97.261	-156.9344
4680.000000	97.132	-154.7517
4750.000000	97.046	-152.1492
4820.000000	97.029	-149.3655
4870.000000	97.077	-147.2690
4940.000000	97.244	-144.3218
5000.000000	97.478	-141.8795
5080.000000	97.944	-138.7611
5150.000000	98.537	-136.4432
5220.000000	99.307	-134.9099
5300.000000	100.405	-134.6245
5380.000000	101.701	-136.7520
5450.000000	102.901	-141.6163
5520.000000	103.926	-150.3571
5600.000000	104.474	-164.7936
5700.000000	103.875	175.7917
5800.000000	102.087	161.8829
5900.000000	99.824	155.3990
6000.000000	97.678	153.9061
6080.000000	96.168	154.7295
6150.000000	94.989	156.4402
6220.000000	93.934	158.8317
6300.000000	92.872	162.1697
6400.000000	91.740	166.9713
6500.000000	90.820	172.1352
6600.000000	90.078	177.4006
6700.000000	89.493	-177.2481
6800.000000	89.067	-172.0394
6900.000000	88.775	-167.2090
7000.000000	88.584	-162.7740
7100.000000	88.494	-158.7389
7200.000000	88.504	-155.2615
7300.000000	88.601	-152.5343
7400.000000	88.741	-150.7587
7500.000000	88.870	-149.7691
7620.000000	89.021	-149.0127
7750.000000	89.404	-148.2876
7880.000000	90.367	-149.4971
8000.000000	91.696	-156.1037
8120.000000	92.894	-171.2807
8250.000000	93.235	162.5197
8380.000000	92.144	133.0738
8500.000000	90.268	108.9956
8620.000000	88.316	88.4959
8750.000000	86.926	68.6924
8850.000000	86.645	53.9323
9000.000000	87.032	30.2274
9120.000000	87.139	10.2736
9250.000000	86.520	-7.6829
9380.000000	85.419	-17.9253
9500.000000	84.527	-21.5839
9620.000000	83.993	-22.6719
9750.000000	83.692	-23.0209
9880.000000	83.487	-23.2559
10000.000000	83.267	-23.4380
10150.000000	82.822	-23.1132
10300.000000	82.180	-20.4792
10440.000000	81.685	-14.9903
10600.000000	81.764	-6.5148
10750.000000	82.678	-0.0051
10900.000000	84.052	1.2687
11060.000000	85.272	-6.1086
11200.000000	85.471	-19.6409
11380.000000	83.808	-37.2044
11500.000000	81.502	-40.7687
11720.000000	76.487	-29.5176
11800.000000	74.970	-23.5876
12060.000000	71.108	-9.1266
12200.000000	69.711	-15.1282
12410.000000	73.646	-66.4720
12500.000000	77.108	-98.3640
12650.000000	82.227	-144.5424
12800.000000	85.914	-178.5588
13150.000000	89.385	123.4202
13200.000000	89.452	117.3284
13400.000000	89.096	97.8802
13600.000000	87.908	84.6141
13800.000000	85.860	78.9204
14000.000000	83.164	85.3435
14300.000000	80.825	113.5654
14500.000000	81.488	130.9993
14750.000000	83.636	150.0618
15000.000000	87.742	164.4275
15250.000000	91.258	158.4264
15500.000000	92.675	136.1348
15750.000000	91.753	113.2043
16000.000000	88.802	104.9275
16250.000000	85.097	117.6075
16500.000000	84.036	144.2126
16750.000000	86.728	160.7009
17000.000000	88.781	154.0317
17250.000000	88.840	135.1997
17500.000000	86.711	120.9187
17750.000000	82.629	129.6979
18000.000000	79.155	172.4810
18250.000000	81.693	-141.9069
18500.000000	85.013	-129.3992
18750.000000	87.418	-132.5281
19000.000000	89.114	-140.3770
19250.000000	89.836	-151.4451
19500.000000	89.543	-161.7432
19750.000000	88.454	-166.8540
