* Measurement data measured by REW V5.20.13
* Source: EXCL: Headset (KM-HIFI-384KHZ), MICROPHONE (Master Volume), 0, volume: 1.000
* Format: 256k Log Swept Sine, 1 sweep at -20.0 dBFS with no timing reference
* Dated: Nov 12, 2023 11:52:53 PM
* REW Settings:
*  C-weighting compensation: Off
*  Target level: 75.0 dB
* Note: 
* Measurement: Sam HD-580 BS L
* Smoothing: 1/24 octave
* Frequency Step: 1/48 octave
* Start Frequency: 20.000 Hz
*
* Freq(Hz)	SPL(dB)	Phase(degrees)
20.000000	60.240	-36.0212
20.299999	60.420	-37.6790
20.600000	60.528	-38.7958
20.900000	60.637	-39.2344
21.200001	60.822	-39.2496
21.400000	60.997	-39.3532
21.799999	61.399	-40.2675
22.000000	61.575	-41.1882
22.400000	61.764	-43.6871
22.700001	61.722	-45.3679
23.000000	61.557	-45.9814
23.299999	61.404	-45.1305
23.600000	61.422	-43.1876
24.000000	61.849	-40.4168
24.299999	62.381	-39.6418
24.700001	63.073	-41.2481
25.000000	63.396	-43.9500
25.400000	63.473	-47.9146
25.799999	63.238	-50.2279
26.200001	62.980	-49.9426
26.500000	62.968	-48.6282
26.900000	63.267	-46.9930
27.200001	63.610	-46.7729
27.600000	64.010	-47.9359
28.000000	64.235	-49.6171
28.500000	64.410	-50.7121
29.000000	64.766	-51.0074
29.500000	65.295	-52.5105
30.000000	65.672	-55.9670
30.400000	65.721	-59.0134
30.700001	65.630	-60.6615
31.100000	65.469	-61.4984
31.500000	65.416	-61.1289
32.000000	65.591	-60.4256
32.500000	65.881	-60.6276
33.000000	66.115	-61.4627
33.500000	66.300	-62.1757
34.000000	66.516	-62.7479
34.500000	66.756	-63.6518
35.000000	66.950	-64.9452
35.500000	67.077	-66.2125
36.000000	67.185	-67.2010
36.500000	67.313	-68.0776
37.000000	67.447	-69.0763
37.500000	67.561	-70.1712
38.200001	67.685	-71.5637
38.700001	67.769	-72.3612
39.500000	67.932	-73.2478
40.000000	68.088	-73.6413
40.599998	68.340	-74.3093
41.200001	68.601	-75.4824
41.799999	68.810	-76.9344
42.500000	69.002	-78.4611
43.099998	69.173	-79.6111
43.700001	69.349	-80.8369
44.400002	69.534	-82.4023
45.000000	69.670	-83.8026
45.500000	69.762	-85.0132
46.200001	69.844	-86.6844
46.799999	69.879	-87.9043
47.500000	69.921	-89.0298
48.200001	69.983	-90.0947
48.700001	70.023	-90.9027
49.400002	70.057	-91.9587
50.000000	70.087	-92.6814
50.799999	70.165	-93.6324
51.500000	70.228	-94.7708
52.200001	70.218	-95.9819
53.000000	70.133	-96.7638
53.799999	70.078	-96.7247
54.500000	70.102	-96.4076
55.200001	70.174	-96.0846
56.000000	70.291	-95.7313
57.000000	70.484	-95.2430
58.000000	70.768	-94.7795
59.000000	71.134	-95.0754
60.000000	71.412	-96.3526
60.799999	71.539	-97.3172
61.500000	71.642	-97.8945
62.200001	71.764	-98.4369
63.000000	71.905	-99.1641
64.000000	72.073	-100.1152
65.000000	72.247	-101.1155
66.000000	72.411	-102.2291
67.000000	72.561	-103.3012
68.000000	72.722	-104.3261
69.000000	72.887	-105.4584
70.000000	73.043	-106.6449
71.000000	73.200	-107.9058
72.000000	73.338	-109.3085
73.000000	73.443	-110.7091
74.000000	73.526	-112.0156
75.000000	73.594	-113.2094
76.199997	73.664	-114.5435
77.500000	73.713	-115.9856
78.800003	73.710	-117.2377
80.000000	73.726	-117.9929
81.199997	73.803	-118.9008
82.500000	73.879	-120.2200
83.800003	73.935	-121.5417
85.000000	73.986	-122.6141
86.199997	74.055	-123.6164
87.500000	74.125	-124.7450
88.500000	74.167	-125.5838
90.000000	74.213	-126.8895
91.199997	74.211	-127.9536
92.500000	74.189	-128.8988
93.800003	74.182	-129.7167
95.000000	74.184	-130.4621
96.199997	74.184	-131.0840
97.500000	74.209	-131.5628
98.800003	74.262	-132.0950
100.000000	74.304	-132.6489
101.500000	74.354	-133.3735
103.000000	74.389	-134.2895
104.400002	74.383	-135.1909
106.000000	74.356	-135.9790
107.500000	74.356	-136.5077
109.000000	74.398	-137.0432
110.599998	74.467	-137.8210
112.000000	74.512	-138.6753
113.800003	74.525	-139.6996
115.000000	74.520	-140.2247
117.199997	74.505	-141.0842
118.000000	74.492	-141.4054
120.599998	74.470	-142.1980
122.000000	74.510	-142.7734
124.099998	74.554	-143.8703
125.000000	74.568	-144.2810
126.500000	74.588	-144.9059
128.000000	74.600	-145.4715
131.500000	74.611	-146.8943
132.000000	74.607	-147.1215
134.000000	74.585	-148.0153
136.000000	74.561	-148.9191
138.000000	74.526	-149.7488
140.000000	74.482	-150.3303
143.000000	74.425	-150.7038
145.000000	74.411	-150.8584
147.500000	74.435	-151.3094
150.000000	74.460	-151.8980
152.500000	74.478	-152.3757
155.000000	74.473	-153.0164
157.500000	74.458	-153.7847
160.000000	74.451	-154.4399
162.500000	74.456	-154.9081
165.000000	74.448	-155.3325
167.500000	74.426	-155.6706
170.000000	74.409	-156.0473
172.500000	74.400	-156.6001
175.000000	74.422	-157.3052
177.500000	74.447	-157.9399
180.000000	74.437	-158.3585
182.500000	74.405	-158.7606
185.000000	74.368	-159.3677
187.500000	74.344	-159.8007
190.000000	74.331	-160.0730
192.500000	74.304	-160.3278
195.000000	74.278	-160.6095
197.500000	74.261	-160.8893
200.000000	74.238	-161.1600
203.000000	74.199	-161.4662
206.000000	74.183	-161.7236
209.000000	74.181	-162.0270
212.000000	74.152	-162.3020
214.000000	74.128	-162.4552
218.000000	74.108	-162.8478
220.000000	74.107	-163.1176
224.000000	74.073	-163.6381
227.000000	74.028	-163.9340
230.000000	74.002	-164.1475
233.000000	73.971	-164.3291
236.000000	73.889	-164.5606
240.000000	73.814	-164.8098
243.000000	73.838	-165.0217
247.000000	73.870	-165.3083
250.000000	73.872	-165.4642
254.000000	73.846	-165.5361
258.000000	73.801	-165.7959
262.000000	73.773	-166.2281
265.000000	73.750	-166.5110
269.000000	73.703	-166.7701
272.000000	73.665	-166.7975
276.000000	73.627	-166.8060
280.000000	73.605	-166.9382
285.000000	73.563	-166.9504
290.000000	73.529	-166.9622
295.000000	73.478	-167.0892
300.000000	73.452	-167.2301
304.000000	73.449	-167.3877
307.000000	73.435	-167.4899
311.000000	73.407	-167.5394
315.000000	73.382	-167.5047
320.000000	73.349	-167.4930
325.000000	73.309	-167.6217
330.000000	73.262	-167.7164
335.000000	73.232	-167.7002
340.000000	73.213	-167.6843
345.000000	73.190	-167.6179
350.000000	73.148	-167.3977
355.000000	73.094	-167.0923
360.000000	73.068	-167.0802
365.000000	73.061	-167.2549
370.000000	73.039	-167.2689
375.000000	73.012	-167.1386
382.000000	72.992	-166.9673
387.000000	72.991	-166.9942
395.000000	72.972	-167.0577
400.000000	72.948	-166.9801
406.000000	72.920	-166.8498
412.000000	72.887	-166.8087
418.000000	72.851	-166.7138
425.000000	72.810	-166.5251
431.000000	72.766	-166.2912
437.000000	72.724	-165.9704
444.000000	72.705	-165.4397
450.000000	72.693	-165.0200
455.000000	72.684	-164.6630
462.000000	72.693	-164.1318
468.000000	72.714	-163.7081
475.000000	72.741	-163.3388
482.000000	72.770	-163.1637
487.000000	72.788	-163.0195
494.000000	72.816	-162.8131
500.000000	72.835	-162.6964
508.000000	72.851	-162.5138
515.000000	72.865	-162.2974
522.000000	72.878	-162.1010
530.000000	72.890	-161.8986
538.000000	72.909	-161.6796
545.000000	72.926	-161.5705
552.000000	72.936	-161.4702
560.000000	72.957	-161.3203
570.000000	72.985	-161.1894
580.000000	72.986	-160.9899
590.000000	72.976	-160.8027
600.000000	72.982	-160.5905
608.000000	73.009	-160.3769
615.000000	73.029	-160.1941
622.000000	73.033	-160.0416
630.000000	73.027	-159.8819
640.000000	73.027	-159.6638
650.000000	73.037	-159.4037
660.000000	73.045	-159.1521
670.000000	73.058	-158.9342
680.000000	73.057	-158.5458
690.000000	73.059	-158.0679
700.000000	73.075	-157.6957
710.000000	73.106	-157.3924
720.000000	73.140	-157.1185
730.000000	73.163	-156.8245
740.000000	73.177	-156.5169
750.000000	73.197	-156.1711
762.000000	73.229	-155.7310
775.000000	73.268	-155.4093
788.000000	73.295	-155.1164
800.000000	73.316	-154.7564
812.000000	73.343	-154.2868
825.000000	73.388	-153.6778
838.000000	73.451	-153.1359
850.000000	73.515	-152.7486
862.000000	73.581	-152.3434
875.000000	73.674	-151.8430
885.000000	73.772	-151.6285
900.000000	73.910	-151.7980
912.000000	73.965	-152.1651
925.000000	73.955	-152.4399
938.000000	73.908	-152.3256
950.000000	73.881	-151.8819
962.000000	73.902	-151.2992
975.000000	73.969	-150.7448
988.000000	74.053	-150.3434
1000.000000	74.138	-150.1235
1015.000000	74.242	-150.0887
1030.000000	74.323	-150.2602
1044.000000	74.357	-150.4949
1060.000000	74.357	-150.5602
1075.000000	74.362	-150.3993
1090.000000	74.373	-150.2949
1106.000000	74.358	-150.1396
1120.000000	74.351	-149.8168
1138.000000	74.367	-149.3815
1150.000000	74.369	-149.1014
1172.000000	74.384	-148.3842
1180.000000	74.396	-148.0723
1206.000000	74.475	-147.0540
1220.000000	74.541	-146.7105
1241.000000	74.610	-146.4327
1250.000000	74.618	-146.2796
1265.000000	74.629	-145.7876
1280.000000	74.670	-145.1449
1315.000000	74.824	-143.7826
1320.000000	74.852	-143.5436
1340.000000	75.008	-142.6382
1360.000000	75.208	-142.2295
1380.000000	75.373	-142.3011
1400.000000	75.502	-142.3360
1430.000000	75.709	-142.5603
1450.000000	75.824	-143.0271
1475.000000	75.899	-143.7999
1500.000000	75.901	-144.6470
1525.000000	75.783	-145.0343
1550.000000	75.669	-144.4317
1575.000000	75.644	-143.4075
1600.000000	75.701	-142.5559
1625.000000	75.794	-142.0021
1650.000000	75.863	-141.8676
1675.000000	75.865	-141.7240
1700.000000	75.835	-141.2395
1725.000000	75.842	-140.4880
1750.000000	75.857	-139.9593
1775.000000	75.834	-139.2053
1800.000000	75.816	-138.4041
1825.000000	75.760	-137.3245
1850.000000	75.720	-135.6841
1875.000000	75.752	-133.7221
1900.000000	75.824	-131.6649
1925.000000	75.972	-129.2167
1950.000000	76.270	-126.7973
1975.000000	76.657	-125.1457
2000.000000	77.051	-124.2113
2030.000000	77.481	-123.8680
2060.000000	77.819	-123.8527
2090.000000	78.134	-123.7943
2120.000000	78.415	-123.9794
2140.000000	78.568	-124.0286
2180.000000	78.890	-123.8045
2200.000000	79.058	-123.6397
2240.000000	79.462	-123.4766
2270.000000	79.740	-123.9237
2300.000000	79.949	-124.4250
2330.000000	80.119	-124.6855
2360.000000	80.279	-124.5840
2400.000000	80.543	-123.8827
2430.000000	80.849	-123.2475
2470.000000	81.357	-123.0590
2500.000000	81.757	-123.4659
2540.000000	82.258	-124.8718
2580.000000	82.624	-126.9389
2620.000000	82.875	-128.8354
2650.000000	83.023	-130.0763
2690.000000	83.173	-131.3513
2720.000000	83.285	-131.8983
2760.000000	83.514	-132.1659
2800.000000	83.847	-132.6249
2850.000000	84.282	-133.7976
2900.000000	84.778	-135.2484
2950.000000	85.308	-137.8206
3000.000000	85.709	-141.2605
3040.000000	85.962	-144.1730
3070.000000	86.110	-146.5080
3110.000000	86.235	-149.7311
3150.000000	86.261	-152.8730
3200.000000	86.164	-155.9679
3250.000000	86.093	-157.6976
3300.000000	86.206	-158.7965
3350.000000	86.545	-160.3682
3400.000000	87.010	-163.8328
3450.000000	87.304	-169.7023
3500.000000	87.216	-176.5368
3550.000000	86.781	177.4804
3600.000000	86.130	173.1949
3650.000000	85.403	170.8875
3700.000000	84.758	170.2424
3750.000000	84.304	170.3842
3820.000000	83.947	169.8408
3870.000000	83.671	168.3976
3950.000000	82.878	166.5035
4000.000000	82.232	167.0439
4060.000000	81.518	169.9716
4120.000000	81.109	174.6253
4180.000000	81.084	179.5995
4250.000000	81.493	-175.2647
4310.000000	82.154	-172.4353
4370.000000	82.939	-171.8307
4440.000000	83.763	-174.1458
4500.000000	84.198	-177.8983
4550.000000	84.365	178.8190
4620.000000	84.430	174.7906
4680.000000	84.422	171.7470
4750.000000	84.338	168.3846
4820.000000	84.172	165.4709
4870.000000	84.031	163.7875
4940.000000	83.868	161.8790
5000.000000	83.779	160.2756
5080.000000	83.681	157.7716
5150.000000	83.560	155.4106
5220.000000	83.429	153.0159
5300.000000	83.275	150.0308
5380.000000	83.111	146.4756
5450.000000	82.891	142.4267
5520.000000	82.452	137.7970
5600.000000	81.602	133.3147
5700.000000	80.154	131.1792
5800.000000	78.714	134.0153
5900.000000	77.844	139.4252
6000.000000	77.579	143.9637
6080.000000	77.555	145.7397
6150.000000	77.498	146.0012
6220.000000	77.310	145.5817
6300.000000	76.901	145.2786
6400.000000	76.221	146.4251
6500.000000	75.597	149.2779
6600.000000	75.150	152.5742
6700.000000	74.752	155.7771
6800.000000	74.348	159.6160
6900.000000	74.048	164.5179
7000.000000	73.991	169.8853
7100.000000	74.165	174.5882
7200.000000	74.402	178.1829
7300.000000	74.606	-178.4674
7400.000000	74.915	-174.6328
7500.000000	75.459	-171.0796
7620.000000	76.306	-168.6307
7750.000000	77.247	-168.4428
7880.000000	78.115	-170.5446
8000.000000	78.721	-174.5170
8120.000000	79.013	-179.5862
8250.000000	78.998	175.2549
8380.000000	78.804	171.3298
8500.000000	78.620	168.4610
8620.000000	78.438	165.5848
8750.000000	78.161	162.3883
8850.000000	77.871	160.1666
9000.000000	77.362	157.6324
9120.000000	76.950	156.2654
9250.000000	76.529	155.1224
9380.000000	76.115	154.1761
9500.000000	75.731	153.5038
9620.000000	75.350	152.9557
9750.000000	74.922	152.4185
9880.000000	74.451	152.0400
10000.000000	73.978	151.9123
10150.000000	73.313	152.0840
10300.000000	72.520	152.9987
10440.000000	71.639	155.3231
10600.000000	70.561	161.0252
10750.000000	69.789	169.6987
10900.000000	69.627	-179.7054
11060.000000	70.264	-169.3872
11200.000000	71.178	-163.5208
11380.000000	72.232	-160.5023
11500.000000	72.694	-159.9934
11720.000000	73.161	-158.1750
11800.000000	73.343	-156.7020
12060.000000	74.603	-150.9488
12200.000000	75.700	-149.5677
12410.000000	77.441	-152.3301
12500.000000	78.109	-155.3005
12650.000000	79.027	-162.2300
12800.000000	79.648	-171.0117
13150.000000	79.813	165.2080
13200.000000	79.686	161.8744
13400.000000	78.886	149.9222
13600.000000	77.831	140.5572
13800.000000	76.783	133.0999
14000.000000	75.840	126.1533
14300.000000	74.541	115.0987
14500.000000	73.711	105.8431
14750.000000	72.346	89.7664
15000.000000	69.846	72.1284
15250.000000	66.171	58.8659
15500.000000	62.530	43.0639
15750.000000	60.421	17.4490
16000.000000	61.837	-11.4057
16250.000000	65.608	-34.2399
16500.000000	69.380	-52.8395
16750.000000	72.075	-73.2255
17000.000000	73.534	-94.2367
17250.000000	74.163	-113.6324
17500.000000	74.074	-133.6432
17750.000000	72.813	-153.1700
18000.000000	70.167	-164.4457
18250.000000	66.726	-163.5298
18500.000000	63.650	-154.7852
18750.000000	61.695	-144.0188
19000.000000	60.675	-132.4405
19250.000000	60.861	-119.0089
19500.000000	62.508	-108.9953
19750.000000	64.196	-107.9980
