* Measurement data measured by REW V5.20.13
* Source: EXCL: Headset (KM-HIFI-384KHZ), MICROPHONE (Master Volume), 0, volume: 0.250
* Format: 256k Log Swept Sine, 1 sweep at -13.0 dBFS with no timing reference
* Dated: Sep 9, 2023 6:15:32 PM
* REW Settings:
*  C-weighting compensation: Off
*  Target level: 75.0 dB
* Note: ; 
* Measurement: Aria Snow L
* Smoothing: 1/24 octave
* Frequency Step: 1/48 octave
* Start Frequency: 20.000 Hz
*
* Freq(Hz)	SPL(dB)	Phase(degrees)
20.000000	103.373	-150.5867
20.299999	103.369	-151.3797
20.600000	103.370	-152.0956
20.900000	103.383	-152.7722
21.200001	103.408	-153.4674
21.400000	103.428	-153.9697
21.799999	103.469	-155.0810
22.000000	103.484	-155.6827
22.400000	103.495	-156.9229
22.700001	103.485	-157.8174
23.000000	103.465	-158.6231
23.299999	103.444	-159.3238
23.600000	103.428	-159.9384
24.000000	103.422	-160.6920
24.299999	103.429	-161.2729
24.700001	103.442	-162.1212
25.000000	103.446	-162.8053
25.400000	103.435	-163.7186
25.799999	103.409	-164.5367
26.200001	103.380	-165.2048
26.500000	103.366	-165.6250
26.900000	103.366	-166.1472
27.200001	103.377	-166.5695
27.600000	103.398	-167.2263
28.000000	103.414	-167.9926
28.500000	103.412	-169.0228
29.000000	103.387	-170.0103
29.500000	103.350	-170.8934
30.000000	103.313	-171.6940
30.400000	103.285	-172.3111
30.700001	103.262	-172.7691
31.100000	103.230	-173.3636
31.500000	103.194	-173.9178
32.000000	103.152	-174.5341
32.500000	103.121	-175.1010
33.000000	103.100	-175.7021
33.500000	103.079	-176.3737
34.000000	103.046	-177.0549
34.500000	103.007	-177.6535
35.000000	102.977	-178.1669
35.500000	102.963	-178.6991
36.000000	102.952	-179.3367
36.500000	102.926	179.9577
37.000000	102.885	179.3092
37.500000	102.841	178.7825
38.200001	102.802	178.1230
38.700001	102.784	177.5802
39.500000	102.740	176.6083
40.000000	102.701	176.0357
40.599998	102.653	175.4057
41.200001	102.607	174.7976
41.799999	102.559	174.2186
42.500000	102.505	173.6124
43.099998	102.469	173.1105
43.700001	102.435	172.5766
44.400002	102.392	171.9422
45.000000	102.354	171.4167
45.500000	102.322	170.9657
46.200001	102.269	170.2987
46.799999	102.206	169.7654
47.500000	102.126	169.2751
48.200001	102.051	168.8732
48.700001	101.999	168.5997
49.400002	101.927	168.2495
50.000000	101.869	167.9758
50.799999	101.796	167.5652
51.500000	101.721	167.1950
52.200001	101.641	166.9459
53.000000	101.569	166.8025
53.799999	101.529	166.6624
54.500000	101.515	166.4759
55.200001	101.518	166.1564
56.000000	101.514	165.5735
57.000000	101.468	164.7635
58.000000	101.401	164.1135
59.000000	101.329	163.5384
60.000000	101.247	163.0357
60.799999	101.178	162.6626
61.500000	101.112	162.3405
62.200001	101.037	162.0445
63.000000	100.945	161.7405
64.000000	100.819	161.4161
65.000000	100.683	161.1961
66.000000	100.542	161.1225
67.000000	100.415	161.2973
68.000000	100.336	161.6545
69.000000	100.314	161.9803
70.000000	100.328	162.0850
71.000000	100.336	162.0439
72.000000	100.344	162.0292
73.000000	100.352	161.9615
74.000000	100.347	161.9487
75.000000	100.366	161.9747
76.199997	100.401	161.5861
77.500000	100.384	160.8949
78.800003	100.354	160.1352
80.000000	100.302	159.2776
81.199997	100.223	158.5222
82.500000	100.134	157.8893
83.800003	100.050	157.3903
85.000000	99.968	156.9817
86.199997	99.876	156.6629
87.500000	99.773	156.4357
88.500000	99.697	156.3139
90.000000	99.586	156.2026
91.199997	99.506	156.2134
92.500000	99.438	156.3141
93.800003	99.395	156.4204
95.000000	99.374	156.4665
96.199997	99.363	156.3769
97.500000	99.344	156.1132
98.800003	99.308	155.7942
100.000000	99.271	155.5007
101.500000	99.224	155.0570
103.000000	99.159	154.5971
104.400002	99.090	154.2397
106.000000	99.011	153.8837
107.500000	98.931	153.5587
109.000000	98.844	153.2760
110.599998	98.750	153.0112
112.000000	98.670	152.7875
113.800003	98.563	152.5237
115.000000	98.491	152.3800
117.199997	98.356	152.1850
118.000000	98.306	152.1351
120.599998	98.140	152.0391
122.000000	98.047	152.0345
124.099998	97.905	152.1349
125.000000	97.846	152.2208
126.500000	97.750	152.4169
128.000000	97.659	152.6969
131.500000	97.505	153.7142
132.000000	97.493	153.8783
134.000000	97.473	154.4904
136.000000	97.491	154.9325
138.000000	97.529	155.0694
140.000000	97.558	154.8981
143.000000	97.550	154.3851
145.000000	97.515	154.0581
147.500000	97.455	153.7201
150.000000	97.389	153.4220
152.500000	97.318	153.1406
155.000000	97.242	152.8789
157.500000	97.156	152.6566
160.000000	97.066	152.4800
162.500000	96.973	152.3564
165.000000	96.881	152.2833
167.500000	96.791	152.2488
170.000000	96.702	152.2413
172.500000	96.616	152.2533
175.000000	96.533	152.2835
177.500000	96.452	152.3279
180.000000	96.373	152.3835
182.500000	96.297	152.4511
185.000000	96.223	152.5296
187.500000	96.150	152.6157
190.000000	96.079	152.7108
192.500000	96.010	152.8149
195.000000	95.942	152.9247
197.500000	95.875	153.0421
200.000000	95.810	153.1676
203.000000	95.733	153.3227
206.000000	95.659	153.4774
209.000000	95.587	153.6299
212.000000	95.517	153.7872
214.000000	95.471	153.8964
218.000000	95.382	154.1179
220.000000	95.338	154.2282
224.000000	95.253	154.4527
227.000000	95.190	154.6310
230.000000	95.128	154.8185
233.000000	95.068	155.0142
236.000000	95.010	155.2142
240.000000	94.933	155.4787
243.000000	94.878	155.6706
247.000000	94.805	155.9221
250.000000	94.751	156.1134
254.000000	94.682	156.3740
258.000000	94.616	156.6414
262.000000	94.552	156.9124
265.000000	94.504	157.1166
269.000000	94.442	157.3923
272.000000	94.396	157.6015
276.000000	94.336	157.8803
280.000000	94.278	158.1540
285.000000	94.209	158.4925
290.000000	94.142	158.8368
295.000000	94.077	159.1874
300.000000	94.013	159.5380
304.000000	93.963	159.8146
307.000000	93.927	160.0218
311.000000	93.881	160.3015
315.000000	93.835	160.5849
320.000000	93.779	160.9358
325.000000	93.725	161.2801
330.000000	93.673	161.6238
335.000000	93.622	161.9687
340.000000	93.573	162.3130
345.000000	93.525	162.6606
350.000000	93.479	163.0085
355.000000	93.435	163.3546
360.000000	93.392	163.6996
365.000000	93.350	164.0388
370.000000	93.309	164.3766
375.000000	93.269	164.7146
382.000000	93.216	165.1866
387.000000	93.179	165.5254
395.000000	93.121	166.0670
400.000000	93.086	166.4045
406.000000	93.046	166.8084
412.000000	93.008	167.2079
418.000000	92.971	167.6011
425.000000	92.930	168.0564
431.000000	92.895	168.4420
437.000000	92.861	168.8366
444.000000	92.824	169.3022
450.000000	92.794	169.6936
455.000000	92.768	170.0150
462.000000	92.734	170.4647
468.000000	92.707	170.8462
475.000000	92.676	171.2870
482.000000	92.647	171.7315
487.000000	92.627	172.0504
494.000000	92.600	172.4955
500.000000	92.577	172.8709
508.000000	92.549	173.3643
515.000000	92.525	173.8037
522.000000	92.502	174.2446
530.000000	92.477	174.7365
538.000000	92.453	175.2316
545.000000	92.432	175.6657
552.000000	92.413	176.0957
560.000000	92.393	176.5883
570.000000	92.369	177.2007
580.000000	92.346	177.8140
590.000000	92.326	178.4237
600.000000	92.309	179.0356
608.000000	92.297	179.5239
615.000000	92.287	179.9439
622.000000	92.279	-179.6373
630.000000	92.269	-179.1577
640.000000	92.259	-178.5506
650.000000	92.249	-177.9337
660.000000	92.242	-177.3210
670.000000	92.237	-176.7120
680.000000	92.233	-176.1106
690.000000	92.233	-175.5090
700.000000	92.235	-174.9028
710.000000	92.239	-174.2941
720.000000	92.244	-173.6879
730.000000	92.251	-173.0824
740.000000	92.260	-172.4743
750.000000	92.271	-171.8651
762.000000	92.288	-171.1378
775.000000	92.310	-170.3587
788.000000	92.335	-169.5825
800.000000	92.362	-168.8617
812.000000	92.392	-168.1408
825.000000	92.428	-167.3722
838.000000	92.470	-166.6203
850.000000	92.513	-165.9370
862.000000	92.561	-165.2631
875.000000	92.615	-164.5476
885.000000	92.659	-164.0103
900.000000	92.728	-163.2283
912.000000	92.784	-162.6238
925.000000	92.841	-161.9803
938.000000	92.892	-161.3131
950.000000	92.934	-160.5953
962.000000	92.991	-159.6875
975.000000	93.113	-158.6136
988.000000	93.291	-157.8916
1000.000000	93.445	-157.6282
1015.000000	93.594	-157.4771
1030.000000	93.718	-157.3079
1044.000000	93.827	-157.1376
1060.000000	93.945	-156.9709
1075.000000	94.045	-156.8501
1090.000000	94.132	-156.7243
1106.000000	94.220	-156.5437
1120.000000	94.299	-156.3565
1138.000000	94.406	-156.1162
1150.000000	94.480	-155.9764
1172.000000	94.618	-155.7952
1180.000000	94.667	-155.7550
1206.000000	94.821	-155.6965
1220.000000	94.899	-155.6937
1241.000000	95.008	-155.7082
1250.000000	95.053	-155.7194
1265.000000	95.124	-155.7389
1280.000000	95.193	-155.7629
1315.000000	95.344	-155.8424
1320.000000	95.364	-155.8554
1340.000000	95.446	-155.9139
1360.000000	95.522	-155.9718
1380.000000	95.594	-156.0226
1400.000000	95.662	-156.0702
1430.000000	95.761	-156.1497
1450.000000	95.824	-156.2014
1475.000000	95.900	-156.2560
1500.000000	95.974	-156.3063
1525.000000	96.046	-156.3535
1550.000000	96.116	-156.3885
1575.000000	96.186	-156.4177
1600.000000	96.256	-156.4570
1625.000000	96.326	-156.5098
1650.000000	96.393	-156.5757
1675.000000	96.456	-156.6509
1700.000000	96.514	-156.7282
1725.000000	96.569	-156.7960
1750.000000	96.620	-156.8523
1775.000000	96.670	-156.9021
1800.000000	96.717	-156.9456
1825.000000	96.761	-156.9771
1850.000000	96.801	-156.9891
1875.000000	96.835	-156.9715
1900.000000	96.864	-156.9060
1925.000000	96.889	-156.7580
1950.000000	96.916	-156.4865
1975.000000	96.956	-156.0739
2000.000000	97.025	-155.5673
2030.000000	97.157	-155.0332
2060.000000	97.322	-154.8389
2090.000000	97.470	-155.0353
2120.000000	97.567	-155.3993
2140.000000	97.604	-155.5965
2180.000000	97.638	-155.6271
2200.000000	97.655	-155.4016
2240.000000	97.741	-154.4959
2270.000000	97.893	-153.6694
2300.000000	98.122	-153.1220
2330.000000	98.383	-153.1354
2360.000000	98.617	-153.7024
2400.000000	98.832	-154.9085
2430.000000	98.920	-155.8056
2470.000000	98.968	-156.6407
2500.000000	98.984	-156.8662
2540.000000	99.038	-156.6153
2580.000000	99.190	-156.0100
2620.000000	99.459	-155.6166
2650.000000	99.704	-155.7665
2690.000000	100.022	-156.6324
2720.000000	100.225	-157.6425
2760.000000	100.435	-159.2182
2800.000000	100.586	-160.8555
2850.000000	100.714	-162.8218
2900.000000	100.795	-164.6299
2950.000000	100.847	-166.2663
3000.000000	100.881	-167.7380
3040.000000	100.900	-168.7846
3070.000000	100.913	-169.4896
3110.000000	100.934	-170.3355
3150.000000	100.967	-171.1000
3200.000000	101.030	-172.0368
3250.000000	101.114	-173.1076
3300.000000	101.199	-174.3907
3350.000000	101.265	-175.8405
3400.000000	101.305	-177.3503
3450.000000	101.325	-178.8544
3500.000000	101.332	179.6711
3550.000000	101.329	178.2277
3600.000000	101.319	176.7991
3650.000000	101.299	175.3849
3700.000000	101.270	173.9955
3750.000000	101.237	172.6137
3820.000000	101.182	170.6266
3870.000000	101.132	169.1459
3950.000000	101.018	166.7183
4000.000000	100.924	165.2175
4060.000000	100.790	163.4694
4120.000000	100.635	161.7951
4180.000000	100.465	160.1984
4250.000000	100.246	158.4411
4310.000000	100.042	157.0361
4370.000000	99.822	155.7339
4440.000000	99.551	154.3457
4500.000000	99.310	153.2632
4550.000000	99.104	152.4355
4620.000000	98.807	151.3900
4680.000000	98.545	150.6028
4750.000000	98.231	149.8188
4820.000000	97.908	149.1874
4870.000000	97.673	148.8363
4940.000000	97.339	148.5065
5000.000000	97.048	148.4214
5080.000000	96.678	148.6740
5150.000000	96.406	149.0762
5220.000000	96.173	149.2942
5300.000000	95.887	149.3672
5380.000000	95.573	149.5916
5450.000000	95.295	149.9956
5520.000000	95.025	150.5679
5600.000000	94.734	151.3900
5700.000000	94.398	152.6427
5800.000000	94.103	154.0872
5900.000000	93.851	155.5992
6000.000000	93.625	157.1422
6080.000000	93.462	158.4408
6150.000000	93.336	159.6324
6220.000000	93.228	160.8635
6300.000000	93.129	162.3031
6400.000000	93.042	164.1241
6500.000000	92.997	165.9375
6600.000000	92.995	167.7131
6700.000000	93.038	169.4226
6800.000000	93.127	171.0340
6900.000000	93.265	172.5101
7000.000000	93.455	173.8019
7100.000000	93.701	174.8538
7200.000000	94.006	175.5884
7300.000000	94.372	175.8864
7400.000000	94.797	175.5931
7500.000000	95.268	174.5211
7620.000000	95.860	171.9002
7750.000000	96.445	167.0325
7880.000000	96.821	159.9034
8000.000000	96.840	151.7603
8120.000000	96.455	143.1865
8250.000000	95.587	134.9255
8380.000000	94.366	128.8867
8500.000000	93.068	125.6022
8620.000000	91.720	124.3591
8750.000000	90.290	124.9805
8850.000000	89.245	126.6470
9000.000000	87.810	130.8105
9120.000000	86.813	135.3876
9250.000000	85.933	141.3636
9380.000000	85.313	148.0277
9500.000000	85.006	154.2767
9620.000000	84.946	160.0137
9750.000000	85.095	165.0054
9880.000000	85.338	168.3306
10000.000000	85.533	169.9690
10150.000000	85.626	170.7016
10300.000000	85.523	170.8341
10440.000000	85.264	171.0035
10600.000000	84.813	171.7698
10750.000000	84.297	173.3930
10900.000000	83.765	175.9825
11060.000000	83.248	179.6220
11200.000000	82.869	-176.7120
11380.000000	82.492	-171.6694
11500.000000	82.304	-168.2228
11720.000000	82.078	-161.8889
11800.000000	82.031	-159.6043
12060.000000	82.000	-152.3285
12200.000000	82.058	-148.5452
12410.000000	82.242	-143.1112
12500.000000	82.357	-140.8908
12650.000000	82.598	-137.3653
12800.000000	82.901	-134.0988
13150.000000	83.863	-127.8403
13200.000000	84.030	-127.1472
13400.000000	84.770	-125.0472
13600.000000	85.619	-124.3083
13800.000000	86.532	-125.3845
14000.000000	87.418	-128.7402
14300.000000	88.393	-138.3389
14500.000000	88.614	-147.1069
14750.000000	88.254	-158.7868
15000.000000	87.243	-168.5943
15250.000000	85.845	-175.1732
15500.000000	84.308	-178.7102
15750.000000	82.778	-179.8237
16000.000000	81.323	-179.0778
16250.000000	79.970	-176.8937
16500.000000	78.734	-173.6201
16750.000000	77.612	-169.6031
17000.000000	76.587	-165.1377
17250.000000	75.623	-160.3590
17500.000000	74.675	-155.0943
17750.000000	73.743	-149.0018
18000.000000	72.884	-142.0118
18250.000000	72.150	-134.6270
18500.000000	71.466	-127.5821
18750.000000	70.551	-119.2155
19000.000000	69.738	-105.9604
19250.000000	69.815	-92.9069
19500.000000	70.120	-84.2497
19750.000000	70.189	-78.4670
