* Measurement data measured by REW V5.20.13
* Source: EXCL: Headset (KM-HIFI-384KHZ), MICROPHONE (Master Volume), 0, volume: 0.250
* Format: 256k Log Swept Sine, 1 sweep at -13.0 dBFS with no timing reference
* Dated: Sep 9, 2023 6:14:49 PM
* REW Settings:
*  C-weighting compensation: Off
*  Target level: 75.0 dB
* Note: ; 
* Measurement: Aria Snow R
* Smoothing: 1/24 octave
* Frequency Step: 1/48 octave
* Start Frequency: 20.000 Hz
*
* Freq(Hz)	SPL(dB)	Phase(degrees)
20.000000	107.200	179.3112
20.299999	107.180	178.6169
20.600000	107.156	177.9488
20.900000	107.129	177.3249
21.200001	107.103	176.7542
21.400000	107.088	176.3974
21.799999	107.065	175.7134
22.000000	107.057	175.3712
22.400000	107.045	174.6605
22.700001	107.035	174.1044
23.000000	107.020	173.5440
23.299999	107.001	172.9985
23.600000	106.980	172.4757
24.000000	106.951	171.8089
24.299999	106.928	171.3181
24.700001	106.894	170.6689
25.000000	106.863	170.2019
25.400000	106.817	169.6445
25.799999	106.773	169.1862
26.200001	106.744	168.7834
26.500000	106.733	168.4550
26.900000	106.725	167.9138
27.200001	106.713	167.4252
27.600000	106.677	166.7306
28.000000	106.619	166.1212
28.500000	106.542	165.6090
29.000000	106.500	165.2520
29.500000	106.496	164.7456
30.000000	106.486	163.9273
30.400000	106.443	163.1669
30.700001	106.388	162.6518
31.100000	106.301	162.1500
31.500000	106.222	161.8549
32.000000	106.160	161.5815
32.500000	106.127	161.1478
33.000000	106.080	160.5038
33.500000	105.997	159.8657
34.000000	105.897	159.4632
34.500000	105.820	159.2773
35.000000	105.782	159.0904
35.500000	105.762	158.7232
36.000000	105.730	158.2185
36.500000	105.680	157.7380
37.000000	105.631	157.3634
37.500000	105.595	157.0204
38.200001	105.555	156.4059
38.700001	105.511	155.8937
39.500000	105.413	155.1896
40.000000	105.350	154.8365
40.599998	105.273	154.4339
41.200001	105.190	154.0697
41.799999	105.108	153.8036
42.500000	105.040	153.5265
43.099998	105.002	153.1059
43.700001	104.947	152.4500
44.400002	104.829	151.6450
45.000000	104.693	151.2505
45.500000	104.592	151.2031
46.200001	104.509	151.3062
46.799999	104.480	151.2499
47.500000	104.441	151.0041
48.200001	104.392	150.8076
48.700001	104.364	150.6980
49.400002	104.330	150.4583
50.000000	104.287	150.2413
50.799999	104.238	150.1131
51.500000	104.238	149.8610
52.200001	104.231	149.1348
53.000000	104.126	148.0836
53.799999	103.948	147.5552
54.500000	103.822	147.6150
55.200001	103.769	147.7547
56.000000	103.759	147.5483
57.000000	103.704	146.8760
58.000000	103.601	146.4606
59.000000	103.528	146.2463
60.000000	103.468	145.8528
60.799999	103.402	145.4518
61.500000	103.334	145.0950
62.200001	103.256	144.7403
63.000000	103.154	144.3928
64.000000	103.030	144.1538
65.000000	102.941	143.9883
66.000000	102.869	143.7146
67.000000	102.791	143.3898
68.000000	102.700	143.1082
69.000000	102.603	142.9276
70.000000	102.510	142.8015
71.000000	102.418	142.6759
72.000000	102.330	142.5373
73.000000	102.247	142.3553
74.000000	102.164	142.1312
75.000000	102.080	141.9147
76.199997	101.985	141.6967
77.500000	101.888	141.4843
78.800003	101.788	141.3087
80.000000	101.692	141.1895
81.199997	101.594	141.0878
82.500000	101.485	140.9866
83.800003	101.378	140.9075
85.000000	101.284	140.8338
86.199997	101.193	140.7629
87.500000	101.099	140.7028
88.500000	101.031	140.6471
90.000000	100.930	140.5408
91.199997	100.849	140.4479
92.500000	100.761	140.3450
93.800003	100.673	140.2412
95.000000	100.590	140.1580
96.199997	100.504	140.0938
97.500000	100.408	140.0500
98.800003	100.312	140.0270
100.000000	100.224	140.0055
101.500000	100.112	139.9747
103.000000	99.998	139.9601
104.400002	99.888	139.9835
106.000000	99.760	140.0737
107.500000	99.637	140.2152
109.000000	99.509	140.4187
110.599998	99.368	140.7479
112.000000	99.244	141.1758
113.800003	99.095	142.0045
115.000000	99.020	142.7653
117.199997	98.992	144.4135
118.000000	99.029	144.9626
120.599998	99.267	145.6722
122.000000	99.381	145.2400
124.099998	99.433	144.0688
125.000000	99.413	143.5624
126.500000	99.343	142.8541
128.000000	99.248	142.3553
131.500000	99.007	141.9142
132.000000	98.975	141.9166
134.000000	98.859	142.0247
136.000000	98.774	142.1628
138.000000	98.710	142.1909
140.000000	98.649	142.0911
143.000000	98.530	141.8586
145.000000	98.436	141.7404
147.500000	98.317	141.6667
150.000000	98.204	141.6808
152.500000	98.095	141.7451
155.000000	97.988	141.8176
157.500000	97.887	141.9127
160.000000	97.790	142.0381
162.500000	97.693	142.1680
165.000000	97.595	142.2961
167.500000	97.500	142.4219
170.000000	97.406	142.5665
172.500000	97.314	142.7344
175.000000	97.223	142.9103
177.500000	97.132	143.0979
180.000000	97.043	143.3009
182.500000	96.958	143.5107
185.000000	96.873	143.7304
187.500000	96.790	143.9639
190.000000	96.708	144.2082
192.500000	96.629	144.4679
195.000000	96.553	144.7585
197.500000	96.483	145.0863
200.000000	96.422	145.4360
203.000000	96.363	145.8414
206.000000	96.318	146.1660
209.000000	96.274	146.3990
212.000000	96.221	146.5956
214.000000	96.183	146.7299
218.000000	96.108	147.0109
220.000000	96.074	147.1392
224.000000	96.004	147.3459
227.000000	95.944	147.4827
230.000000	95.882	147.6308
233.000000	95.820	147.7913
236.000000	95.757	147.9553
240.000000	95.671	148.1832
243.000000	95.608	148.3715
247.000000	95.526	148.6509
250.000000	95.466	148.8747
254.000000	95.387	149.1782
258.000000	95.310	149.4834
262.000000	95.236	149.7912
265.000000	95.182	150.0237
269.000000	95.114	150.3422
272.000000	95.063	150.5815
276.000000	94.996	150.8846
280.000000	94.934	151.1790
285.000000	94.860	151.5674
290.000000	94.787	151.9788
295.000000	94.715	152.3798
300.000000	94.647	152.7718
304.000000	94.593	153.0917
307.000000	94.553	153.3310
311.000000	94.499	153.6451
315.000000	94.448	153.9595
320.000000	94.388	154.3538
325.000000	94.329	154.7417
330.000000	94.272	155.1283
335.000000	94.215	155.5110
340.000000	94.160	155.8976
345.000000	94.108	156.2843
350.000000	94.060	156.6595
355.000000	94.011	157.0351
360.000000	93.963	157.4092
365.000000	93.916	157.7769
370.000000	93.872	158.1422
375.000000	93.830	158.5060
382.000000	93.772	159.0182
387.000000	93.730	159.3815
395.000000	93.663	159.9581
400.000000	93.623	160.3234
406.000000	93.580	160.7631
412.000000	93.537	161.1938
418.000000	93.495	161.6065
425.000000	93.447	162.0792
431.000000	93.410	162.4938
437.000000	93.376	162.9082
444.000000	93.338	163.3812
450.000000	93.304	163.7841
455.000000	93.275	164.1136
462.000000	93.237	164.5723
468.000000	93.206	164.9744
475.000000	93.172	165.4493
482.000000	93.137	165.9157
487.000000	93.111	166.2390
494.000000	93.077	166.6866
500.000000	93.051	167.0706
508.000000	93.018	167.5900
515.000000	92.990	168.0438
522.000000	92.963	168.4842
530.000000	92.934	168.9800
538.000000	92.906	169.4770
545.000000	92.885	169.9162
552.000000	92.865	170.3555
560.000000	92.842	170.8440
570.000000	92.813	171.4430
580.000000	92.785	172.0543
590.000000	92.760	172.6799
600.000000	92.736	173.3028
608.000000	92.718	173.7802
615.000000	92.703	174.1870
622.000000	92.690	174.5981
630.000000	92.676	175.0791
640.000000	92.660	175.6921
650.000000	92.646	176.3050
660.000000	92.636	176.8973
670.000000	92.628	177.4727
680.000000	92.622	178.0540
690.000000	92.619	178.6489
700.000000	92.617	179.2512
710.000000	92.617	179.8436
720.000000	92.619	-179.5821
730.000000	92.621	-179.0104
740.000000	92.626	-178.4265
750.000000	92.632	-177.8328
762.000000	92.640	-177.1235
775.000000	92.652	-176.3707
788.000000	92.670	-175.6366
800.000000	92.689	-174.9523
812.000000	92.711	-174.2680
825.000000	92.740	-173.5338
838.000000	92.774	-172.8138
850.000000	92.811	-172.1774
862.000000	92.852	-171.5501
875.000000	92.901	-170.8734
885.000000	92.942	-170.3664
900.000000	93.008	-169.6360
912.000000	93.068	-169.1047
925.000000	93.137	-168.6091
938.000000	93.200	-168.1763
950.000000	93.250	-167.7880
962.000000	93.302	-167.4013
975.000000	93.355	-167.0913
988.000000	93.371	-166.8313
1000.000000	93.363	-166.3108
1015.000000	93.398	-165.2708
1030.000000	93.496	-164.3357
1044.000000	93.606	-163.7175
1060.000000	93.727	-163.1862
1075.000000	93.836	-162.7693
1090.000000	93.943	-162.4016
1106.000000	94.052	-162.0589
1120.000000	94.146	-161.7980
1138.000000	94.267	-161.5119
1150.000000	94.345	-161.3468
1172.000000	94.485	-161.1032
1180.000000	94.535	-161.0317
1206.000000	94.688	-160.8424
1220.000000	94.766	-160.7732
1241.000000	94.877	-160.7036
1250.000000	94.923	-160.6871
1265.000000	94.998	-160.6772
1280.000000	95.069	-160.6798
1315.000000	95.222	-160.7108
1320.000000	95.243	-160.7150
1340.000000	95.323	-160.7299
1360.000000	95.401	-160.7570
1380.000000	95.478	-160.8017
1400.000000	95.552	-160.8632
1430.000000	95.650	-160.9466
1450.000000	95.710	-160.9700
1475.000000	95.785	-160.9911
1500.000000	95.862	-161.0186
1525.000000	95.939	-161.0295
1550.000000	96.010	-161.0287
1575.000000	96.081	-161.0505
1600.000000	96.152	-161.1001
1625.000000	96.224	-161.1553
1650.000000	96.291	-161.2071
1675.000000	96.354	-161.2538
1700.000000	96.414	-161.2958
1725.000000	96.475	-161.3439
1750.000000	96.538	-161.3954
1775.000000	96.598	-161.4405
1800.000000	96.653	-161.4608
1825.000000	96.706	-161.4577
1850.000000	96.760	-161.4621
1875.000000	96.817	-161.4758
1900.000000	96.874	-161.4658
1925.000000	96.928	-161.4127
1950.000000	96.982	-161.3193
1975.000000	97.045	-161.2014
2000.000000	97.120	-161.0794
2030.000000	97.227	-160.9579
2060.000000	97.348	-160.9279
2090.000000	97.467	-161.0481
2120.000000	97.575	-161.2757
2140.000000	97.640	-161.4518
2180.000000	97.758	-161.8294
2200.000000	97.814	-162.0177
2240.000000	97.919	-162.3691
2270.000000	97.992	-162.6128
2300.000000	98.063	-162.8448
2330.000000	98.135	-163.0773
2360.000000	98.209	-163.3132
2400.000000	98.310	-163.6210
2430.000000	98.385	-163.8578
2470.000000	98.486	-164.2066
2500.000000	98.561	-164.4880
2540.000000	98.658	-164.8834
2580.000000	98.751	-165.2980
2620.000000	98.842	-165.7266
2650.000000	98.908	-166.0544
2690.000000	98.995	-166.4882
2720.000000	99.058	-166.8137
2760.000000	99.141	-167.2419
2800.000000	99.226	-167.6510
2850.000000	99.338	-168.1590
2900.000000	99.462	-168.6871
2950.000000	99.594	-169.3065
3000.000000	99.728	-170.0314
3040.000000	99.832	-170.6908
3070.000000	99.906	-171.2237
3110.000000	100.000	-171.9533
3150.000000	100.090	-172.6949
3200.000000	100.201	-173.6438
3250.000000	100.314	-174.6220
3300.000000	100.433	-175.6961
3350.000000	100.552	-176.9161
3400.000000	100.656	-178.2532
3450.000000	100.743	-179.6548
3500.000000	100.820	178.9256
3550.000000	100.896	177.4543
3600.000000	100.970	175.8556
3650.000000	101.030	174.0993
3700.000000	101.063	172.2179
3750.000000	101.066	170.2618
3820.000000	101.022	167.4978
3870.000000	100.957	165.5796
3950.000000	100.806	162.6229
4000.000000	100.687	160.8598
4060.000000	100.522	158.8474
4120.000000	100.335	156.9333
4180.000000	100.127	155.1357
4250.000000	99.864	153.1727
4310.000000	99.621	151.6208
4370.000000	99.360	150.2198
4440.000000	99.042	148.7513
4500.000000	98.761	147.6362
4550.000000	98.521	146.8208
4620.000000	98.175	145.8493
4680.000000	97.875	145.1772
4750.000000	97.525	144.5745
4820.000000	97.178	144.1555
4870.000000	96.930	143.9650
4940.000000	96.587	143.8438
5000.000000	96.298	143.8769
5080.000000	95.924	144.1272
5150.000000	95.614	144.5308
5220.000000	95.325	145.0713
5300.000000	95.026	145.7780
5380.000000	94.754	146.4936
5450.000000	94.528	147.1127
5520.000000	94.306	147.7522
5600.000000	94.057	148.5522
5700.000000	93.756	149.7123
5800.000000	93.480	151.0574
5900.000000	93.240	152.5452
6000.000000	93.035	154.1396
6080.000000	92.896	155.4676
6150.000000	92.796	156.6561
6220.000000	92.714	157.8646
6300.000000	92.642	159.2564
6400.000000	92.585	160.9957
6500.000000	92.567	162.7231
6600.000000	92.595	164.3995
6700.000000	92.670	166.0042
6800.000000	92.795	167.4905
6900.000000	92.973	168.7996
7000.000000	93.202	169.8822
7100.000000	93.491	170.6474
7200.000000	93.839	170.9954
7300.000000	94.236	170.8024
7400.000000	94.672	169.9104
7500.000000	95.120	168.1866
7620.000000	95.630	164.8671
7750.000000	96.077	159.6284
7880.000000	96.312	152.8856
8000.000000	96.274	145.7727
8120.000000	95.962	138.3751
8250.000000	95.309	130.7343
8380.000000	94.364	124.1891
8500.000000	93.283	119.6441
8620.000000	92.081	116.7295
8750.000000	90.732	115.3210
8850.000000	89.705	115.3235
9000.000000	88.228	116.7636
9120.000000	87.118	118.9385
9250.000000	85.989	122.1528
9380.000000	84.950	126.1375
9500.000000	84.074	130.4550
9620.000000	83.282	135.3619
9750.000000	82.536	141.2986
9880.000000	81.938	147.7859
10000.000000	81.546	154.0900
10150.000000	81.306	161.9338
10300.000000	81.330	169.0259
10440.000000	81.508	174.4538
10600.000000	81.770	179.0597
10750.000000	81.965	-177.9564
10900.000000	82.048	-175.7395
11060.000000	82.007	-173.6047
11200.000000	81.889	-171.5796
11380.000000	81.681	-168.5421
11500.000000	81.534	-166.2341
11720.000000	81.294	-161.5077
11800.000000	81.224	-159.6667
12060.000000	81.083	-153.4249
12200.000000	81.068	-149.9880
12410.000000	81.134	-144.8597
12500.000000	81.195	-142.6989
12650.000000	81.340	-139.1816
12800.000000	81.540	-135.8147
13150.000000	82.211	-128.9024
13200.000000	82.329	-128.0601
13400.000000	82.850	-125.1392
13600.000000	83.439	-123.0164
13800.000000	84.080	-121.8075
14000.000000	84.755	-121.6283
14300.000000	85.782	-123.5515
14500.000000	86.422	-126.5419
14750.000000	87.044	-132.4569
15000.000000	87.290	-140.3378
15250.000000	87.038	-148.6093
15500.000000	86.335	-155.3261
15750.000000	85.379	-159.3732
16000.000000	84.399	-160.8622
16250.000000	83.547	-160.6428
16500.000000	82.867	-159.7193
16750.000000	82.311	-158.8000
17000.000000	81.799	-158.0867
17250.000000	81.291	-157.4646
17500.000000	80.788	-156.9429
17750.000000	80.283	-156.7934
18000.000000	79.698	-157.2129
18250.000000	78.941	-157.6621
18500.000000	78.067	-157.9056
18750.000000	77.041	-158.4762
19000.000000	75.679	-158.3812
19250.000000	73.952	-155.6990
19500.000000	72.072	-150.2176
19750.000000	70.297	-143.9393
