* Measurement data measured by REW V5.20.13
* Source: EXCL: Headset (KM-HIFI-384KHZ), MICROPHONE (Master Volume), 0, volume: 1.000
* Format: 256k Log Swept Sine, 1 sweep at -13.0 dBFS with no timing reference
* Dated: Aug 12, 2023 12:40:09 PM
* REW Settings:
*  C-weighting compensation: Off
*  Target level: 75.0 dB
* Note: 
* Measurement: Aug 12
* Smoothing: 1/24 octave
* Frequency Step: 1/48 octave
* Start Frequency: 20.000 Hz
*
* Freq(Hz)	SPL(dB)	Phase(degrees)
20.000000	97.635	-147.6795
20.299999	97.648	-148.1939
20.600000	97.671	-148.7317
20.900000	97.699	-149.3231
21.200001	97.728	-149.9709
21.400000	97.747	-150.4292
21.799999	97.782	-151.4151
22.000000	97.797	-151.9477
22.400000	97.817	-153.1024
22.700001	97.815	-154.0245
23.000000	97.793	-154.9318
23.299999	97.754	-155.7383
23.600000	97.707	-156.3852
24.000000	97.658	-156.9813
24.299999	97.649	-157.3069
24.700001	97.679	-157.7608
25.000000	97.721	-158.2302
25.400000	97.777	-159.0681
25.799999	97.809	-160.0329
26.200001	97.814	-160.9437
26.500000	97.809	-161.5279
26.900000	97.806	-162.1869
27.200001	97.809	-162.6396
27.600000	97.816	-163.2406
28.000000	97.817	-163.8313
28.500000	97.810	-164.4695
29.000000	97.814	-164.9781
29.500000	97.841	-165.5090
30.000000	97.873	-166.2382
30.400000	97.882	-166.9583
30.700001	97.871	-167.5190
31.100000	97.839	-168.2010
31.500000	97.797	-168.7557
32.000000	97.754	-169.2918
32.500000	97.735	-169.7753
33.000000	97.736	-170.3330
33.500000	97.740	-171.0017
34.000000	97.737	-171.7361
34.500000	97.722	-172.4536
35.000000	97.700	-173.0910
35.500000	97.681	-173.6311
36.000000	97.669	-174.1021
36.500000	97.664	-174.5363
37.000000	97.662	-174.9450
37.500000	97.665	-175.3349
38.200001	97.676	-175.9223
38.700001	97.678	-176.4263
39.500000	97.647	-177.2800
40.000000	97.610	-177.7257
40.599998	97.572	-178.1824
41.200001	97.541	-178.6949
41.799999	97.499	-179.2802
42.500000	97.434	-179.8734
43.099998	97.392	179.7331
43.700001	97.371	179.2878
44.400002	97.346	178.6394
45.000000	97.311	178.1225
45.500000	97.284	177.7932
46.200001	97.268	177.4026
46.799999	97.270	177.0171
47.500000	97.270	176.4723
48.200001	97.254	175.8868
48.700001	97.230	175.4990
49.400002	97.188	175.0590
50.000000	97.157	174.7556
50.799999	97.125	174.3264
51.500000	97.093	173.8823
52.200001	97.052	173.4427
53.000000	97.005	172.9982
53.799999	96.967	172.5688
54.500000	96.938	172.1714
55.200001	96.910	171.7648
56.000000	96.877	171.3109
57.000000	96.838	170.7620
58.000000	96.797	170.1955
59.000000	96.742	169.6521
60.000000	96.682	169.2237
60.799999	96.642	168.8970
61.500000	96.608	168.5787
62.200001	96.571	168.2529
63.000000	96.527	167.9005
64.000000	96.476	167.4814
65.000000	96.428	167.0619
66.000000	96.380	166.6541
67.000000	96.331	166.2775
68.000000	96.284	165.9254
69.000000	96.236	165.5848
70.000000	96.187	165.2393
71.000000	96.134	164.8985
72.000000	96.083	164.5696
73.000000	96.034	164.2283
74.000000	95.985	163.8692
75.000000	95.934	163.5161
76.199997	95.872	163.1334
77.500000	95.807	162.7814
78.800003	95.748	162.4448
80.000000	95.691	162.1250
81.199997	95.630	161.8207
82.500000	95.565	161.5068
83.800003	95.499	161.1740
85.000000	95.436	160.8969
86.199997	95.380	160.6662
87.500000	95.327	160.3925
88.500000	95.285	160.1670
90.000000	95.218	159.8445
91.199997	95.163	159.6237
92.500000	95.106	159.3952
93.800003	95.048	159.1495
95.000000	94.990	158.9357
96.199997	94.933	158.7366
97.500000	94.872	158.5239
98.800003	94.812	158.3113
100.000000	94.757	158.1331
101.500000	94.692	157.9293
103.000000	94.627	157.7323
104.400002	94.563	157.5586
106.000000	94.487	157.3645
107.500000	94.416	157.1762
109.000000	94.348	156.9722
110.599998	94.283	156.7374
112.000000	94.225	156.5193
113.800003	94.141	156.3533
115.000000	94.090	156.3081
117.199997	94.001	156.1917
118.000000	93.967	156.1223
120.599998	93.854	155.9127
122.000000	93.798	155.8091
124.099998	93.709	155.6928
125.000000	93.670	155.6627
126.500000	93.605	155.6099
128.000000	93.538	155.5518
131.500000	93.387	155.4473
132.000000	93.366	155.4344
134.000000	93.277	155.4026
136.000000	93.181	155.4177
138.000000	93.084	155.4912
140.000000	92.991	155.6277
143.000000	92.858	155.9924
145.000000	92.780	156.3651
147.500000	92.714	156.9265
150.000000	92.693	157.4926
152.500000	92.711	157.9086
155.000000	92.745	157.9387
157.500000	92.756	157.6109
160.000000	92.738	157.2245
162.500000	92.696	156.8906
165.000000	92.632	156.6166
167.500000	92.560	156.4107
170.000000	92.492	156.2622
172.500000	92.425	156.1621
175.000000	92.353	156.0785
177.500000	92.274	156.0266
180.000000	92.194	156.0053
182.500000	92.116	156.0187
185.000000	92.047	156.0580
187.500000	91.986	156.0825
190.000000	91.925	156.1118
192.500000	91.862	156.1674
195.000000	91.797	156.2311
197.500000	91.731	156.3127
200.000000	91.669	156.4002
203.000000	91.599	156.5064
206.000000	91.530	156.6197
209.000000	91.460	156.7403
212.000000	91.391	156.8647
214.000000	91.346	156.9478
218.000000	91.260	157.1248
220.000000	91.218	157.2325
224.000000	91.128	157.4652
227.000000	91.067	157.6088
230.000000	91.016	157.8225
233.000000	90.961	158.1234
236.000000	90.893	158.3417
240.000000	90.813	158.4454
243.000000	90.762	158.6368
247.000000	90.704	159.0401
250.000000	90.663	159.2195
254.000000	90.601	159.4091
258.000000	90.538	159.6506
262.000000	90.485	159.9432
265.000000	90.449	160.1593
269.000000	90.402	160.3987
272.000000	90.366	160.5539
276.000000	90.316	160.7635
280.000000	90.263	160.9844
285.000000	90.198	161.2717
290.000000	90.140	161.5581
295.000000	90.085	161.8368
300.000000	90.029	162.1281
304.000000	89.984	162.3510
307.000000	89.952	162.5111
311.000000	89.908	162.7274
315.000000	89.861	162.9504
320.000000	89.804	163.2524
325.000000	89.751	163.5621
330.000000	89.699	163.8693
335.000000	89.649	164.1762
340.000000	89.602	164.4730
345.000000	89.556	164.7800
350.000000	89.509	165.0924
355.000000	89.461	165.4285
360.000000	89.418	165.7601
365.000000	89.378	166.0901
370.000000	89.335	166.4095
375.000000	89.296	166.7281
382.000000	89.242	167.1987
387.000000	89.204	167.5209
395.000000	89.146	168.0183
400.000000	89.111	168.3389
406.000000	89.069	168.7314
412.000000	89.030	169.1240
418.000000	88.995	169.5112
425.000000	88.954	169.9586
431.000000	88.920	170.3379
437.000000	88.886	170.7216
444.000000	88.848	171.1772
450.000000	88.817	171.5641
455.000000	88.793	171.8831
462.000000	88.761	172.3230
468.000000	88.735	172.6937
475.000000	88.702	173.1263
482.000000	88.670	173.5766
487.000000	88.650	173.9155
494.000000	88.623	174.3846
500.000000	88.604	174.7619
508.000000	88.579	175.2542
515.000000	88.556	175.6870
522.000000	88.530	176.1157
530.000000	88.504	176.6130
538.000000	88.480	177.1183
545.000000	88.461	177.5575
552.000000	88.443	177.9985
560.000000	88.423	178.5015
570.000000	88.401	179.1306
580.000000	88.381	179.7552
590.000000	88.363	-179.6235
600.000000	88.347	-178.9946
608.000000	88.334	-178.4923
615.000000	88.324	-178.0580
622.000000	88.315	-177.6194
630.000000	88.307	-177.1071
640.000000	88.299	-176.4762
650.000000	88.293	-175.8537
660.000000	88.288	-175.2242
670.000000	88.285	-174.5912
680.000000	88.284	-173.9509
690.000000	88.286	-173.3123
700.000000	88.289	-172.6814
710.000000	88.296	-172.0505
720.000000	88.304	-171.4164
730.000000	88.315	-170.7756
740.000000	88.327	-170.1326
750.000000	88.342	-169.4942
762.000000	88.364	-168.7341
775.000000	88.391	-167.9110
788.000000	88.423	-167.0869
800.000000	88.456	-166.3264
812.000000	88.493	-165.5722
825.000000	88.537	-164.7600
838.000000	88.587	-163.9533
850.000000	88.636	-163.2272
862.000000	88.689	-162.5121
875.000000	88.752	-161.7433
885.000000	88.805	-161.1627
900.000000	88.888	-160.3155
912.000000	88.959	-159.6592
925.000000	89.040	-158.9708
938.000000	89.124	-158.3014
950.000000	89.205	-157.7065
962.000000	89.290	-157.1378
975.000000	89.385	-156.5510
988.000000	89.483	-156.0001
1000.000000	89.576	-155.5231
1015.000000	89.695	-154.9628
1030.000000	89.816	-154.4458
1044.000000	89.929	-154.0051
1060.000000	90.061	-153.5493
1075.000000	90.185	-153.1684
1090.000000	90.308	-152.8328
1106.000000	90.439	-152.5192
1120.000000	90.553	-152.2777
1138.000000	90.698	-152.0173
1150.000000	90.793	-151.8730
1172.000000	90.964	-151.6604
1180.000000	91.024	-151.5993
1206.000000	91.216	-151.4536
1220.000000	91.316	-151.4017
1241.000000	91.460	-151.3544
1250.000000	91.520	-151.3447
1265.000000	91.619	-151.3408
1280.000000	91.715	-151.3501
1315.000000	91.931	-151.4157
1320.000000	91.961	-151.4297
1340.000000	92.079	-151.4941
1360.000000	92.193	-151.5700
1380.000000	92.304	-151.6548
1400.000000	92.413	-151.7466
1430.000000	92.571	-151.9061
1450.000000	92.674	-152.0266
1475.000000	92.802	-152.1887
1500.000000	92.926	-152.3651
1525.000000	93.049	-152.5603
1550.000000	93.170	-152.7718
1575.000000	93.288	-153.0000
1600.000000	93.404	-153.2465
1625.000000	93.518	-153.5133
1650.000000	93.630	-153.8026
1675.000000	93.740	-154.1135
1700.000000	93.847	-154.4440
1725.000000	93.952	-154.7935
1750.000000	94.053	-155.1606
1775.000000	94.151	-155.5439
1800.000000	94.246	-155.9436
1825.000000	94.337	-156.3583
1850.000000	94.426	-156.7862
1875.000000	94.513	-157.2297
1900.000000	94.596	-157.6886
1925.000000	94.677	-158.1612
1950.000000	94.755	-158.6449
1975.000000	94.828	-159.1387
2000.000000	94.898	-159.6437
2030.000000	94.977	-160.2658
2060.000000	95.052	-160.9041
2090.000000	95.121	-161.5544
2120.000000	95.184	-162.2150
2140.000000	95.224	-162.6602
2180.000000	95.295	-163.5616
2200.000000	95.327	-164.0178
2240.000000	95.384	-164.9348
2270.000000	95.420	-165.6216
2300.000000	95.449	-166.3053
2330.000000	95.472	-166.9834
2360.000000	95.490	-167.6554
2400.000000	95.504	-168.5389
2430.000000	95.510	-169.1886
2470.000000	95.509	-170.0330
2500.000000	95.503	-170.6470
2540.000000	95.487	-171.4356
2580.000000	95.464	-172.1887
2620.000000	95.435	-172.9041
2650.000000	95.408	-173.4134
2690.000000	95.368	-174.0526
2720.000000	95.335	-174.5029
2760.000000	95.287	-175.0649
2800.000000	95.236	-175.5821
2850.000000	95.168	-176.1637
2900.000000	95.098	-176.6786
2950.000000	95.026	-177.1377
3000.000000	94.953	-177.5477
3040.000000	94.893	-177.8372
3070.000000	94.848	-178.0320
3110.000000	94.788	-178.2634
3150.000000	94.728	-178.4617
3200.000000	94.655	-178.6655
3250.000000	94.583	-178.8242
3300.000000	94.514	-178.9413
3350.000000	94.447	-179.0235
3400.000000	94.385	-179.0750
3450.000000	94.325	-179.0999
3500.000000	94.269	-179.1024
3550.000000	94.216	-179.0883
3600.000000	94.168	-179.0615
3650.000000	94.123	-179.0255
3700.000000	94.082	-178.9837
3750.000000	94.044	-178.9371
3820.000000	93.996	-178.8725
3870.000000	93.965	-178.8338
3950.000000	93.921	-178.7887
4000.000000	93.895	-178.7732
4060.000000	93.866	-178.7738
4120.000000	93.838	-178.7983
4180.000000	93.810	-178.8406
4250.000000	93.776	-178.9076
4310.000000	93.746	-178.9769
4370.000000	93.716	-179.0561
4440.000000	93.683	-179.1709
4500.000000	93.656	-179.3058
4550.000000	93.632	-179.4514
4620.000000	93.595	-179.7027
4680.000000	93.557	-179.9562
4750.000000	93.503	179.7145
4820.000000	93.441	179.3645
4870.000000	93.389	179.1105
4940.000000	93.307	178.7590
5000.000000	93.228	178.4700
5080.000000	93.111	178.1137
5150.000000	92.999	177.8403
5220.000000	92.879	177.6174
5300.000000	92.732	177.4391
5380.000000	92.575	177.3584
5450.000000	92.432	177.3768
5520.000000	92.287	177.4849
5600.000000	92.121	177.7230
5700.000000	91.916	178.1924
5800.000000	91.719	178.8439
5900.000000	91.534	179.6574
6000.000000	91.363	-179.3815
6080.000000	91.237	-178.5097
6150.000000	91.136	-177.6753
6220.000000	91.045	-176.7753
6300.000000	90.951	-175.6632
6400.000000	90.854	-174.1427
6500.000000	90.786	-172.4829
6600.000000	90.751	-170.6988
6700.000000	90.756	-168.8096
6800.000000	90.805	-166.8446
6900.000000	90.901	-164.8348
7000.000000	91.046	-162.8041
7100.000000	91.245	-160.7754
7200.000000	91.504	-158.7838
7300.000000	91.829	-156.8763
7400.000000	92.223	-155.1065
7500.000000	92.694	-153.5379
7620.000000	93.371	-152.0455
7750.000000	94.258	-151.1452
7880.000000	95.318	-151.3727
8000.000000	96.448	-153.1242
8120.000000	97.671	-157.1315
8250.000000	98.929	-165.0540
8380.000000	99.797	-177.1896
8500.000000	99.962	169.1477
8620.000000	99.423	155.8746
8750.000000	98.210	144.6860
8850.000000	97.032	138.9432
9000.000000	95.184	134.2899
9120.000000	93.796	133.0128
9250.000000	92.443	133.2434
9380.000000	91.247	134.6042
9500.000000	90.268	136.5536
9620.000000	89.393	138.9851
9750.000000	88.549	142.0323
9880.000000	87.802	145.4113
10000.000000	87.189	148.7645
10150.000000	86.517	153.2204
10300.000000	85.942	157.9426
10440.000000	85.490	162.5956
10600.000000	85.083	168.2034
10750.000000	84.820	173.7537
10900.000000	84.706	179.5896
11060.000000	84.810	-174.0257
11200.000000	85.155	-168.6848
11380.000000	85.975	-163.3723
11500.000000	86.666	-161.6441
11720.000000	87.837	-163.0648
11800.000000	88.146	-164.8066
12060.000000	88.580	-172.4229
12200.000000	88.494	-176.6246
12410.000000	88.063	177.9664
12500.000000	87.798	176.0865
12650.000000	87.284	173.5943
12800.000000	86.709	171.9142
13150.000000	85.302	170.9189
13200.000000	85.107	171.0729
13400.000000	84.362	172.3140
13600.000000	83.700	174.4177
13800.000000	83.142	177.2133
14000.000000	82.700	-179.4360
14300.000000	82.282	-173.6247
14500.000000	82.183	-169.4175
14750.000000	82.276	-164.0589
15000.000000	82.623	-158.8838
15250.000000	83.250	-154.2773
15500.000000	84.192	-150.8655
15750.000000	85.454	-149.7283
16000.000000	86.914	-152.6365
16250.000000	88.191	-161.8490
16500.000000	88.676	-178.3024
16750.000000	87.691	162.9063
17000.000000	84.875	157.3026
17250.000000	82.049	164.3660
17500.000000	80.622	168.7226
17750.000000	79.430	172.0309
18000.000000	78.290	176.6437
18250.000000	77.386	-177.8095
18500.000000	76.819	-172.3906
18750.000000	76.591	-168.0662
19000.000000	76.658	-165.7276
19250.000000	76.913	-166.5116
19500.000000	77.118	-171.5410
19750.000000	77.003	-179.8750
