* Measurement data measured by REW V5.20.13
* Source: EXCL: Headset (KM-HIFI-384KHZ), MICROPHONE (Master Volume), 0, volume: 0.250
* Format: 256k Log Swept Sine, 1 sweep at -13.0 dBFS with no timing reference
* Dated: Sep 9, 2023 6:07:45 PM
* REW Settings:
*  C-weighting compensation: Off
*  Target level: 75.0 dB
* Note: ; 
* Measurement: Cadenza L
* Smoothing: 1/24 octave
* Frequency Step: 1/48 octave
* Start Frequency: 20.000 Hz
*
* Freq(Hz)	SPL(dB)	Phase(degrees)
20.000000	103.385	-151.4317
20.299999	103.395	-152.2522
20.600000	103.403	-153.0514
20.900000	103.410	-153.8306
21.200001	103.415	-154.5910
21.400000	103.418	-155.0878
21.799999	103.421	-156.0583
22.000000	103.423	-156.5328
22.400000	103.424	-157.4632
22.700001	103.424	-158.1475
23.000000	103.423	-158.8228
23.299999	103.421	-159.4901
23.600000	103.418	-160.1490
24.000000	103.412	-161.0123
24.299999	103.406	-161.6458
24.700001	103.396	-162.4695
25.000000	103.389	-163.0709
25.400000	103.379	-163.8528
25.799999	103.370	-164.6153
26.200001	103.360	-165.3624
26.500000	103.353	-165.9138
26.900000	103.343	-166.6370
27.200001	103.335	-167.1691
27.600000	103.322	-167.8624
28.000000	103.309	-168.5346
28.500000	103.290	-169.3430
29.000000	103.272	-170.1175
29.500000	103.253	-170.8651
30.000000	103.235	-171.5967
30.400000	103.220	-172.1766
30.700001	103.208	-172.6093
31.100000	103.190	-173.1807
31.500000	103.170	-173.7414
32.000000	103.143	-174.4217
32.500000	103.116	-175.0806
33.000000	103.088	-175.7249
33.500000	103.058	-176.3562
34.000000	103.028	-176.9670
34.500000	102.999	-177.5527
35.000000	102.971	-178.1217
35.500000	102.946	-178.6884
36.000000	102.919	-179.2548
36.500000	102.891	-179.8076
37.000000	102.862	179.6638
37.500000	102.835	179.1529
38.200001	102.798	178.4412
38.700001	102.770	177.9369
39.500000	102.721	177.1672
40.000000	102.692	176.7032
40.599998	102.656	176.1454
41.200001	102.617	175.5959
41.799999	102.575	175.0796
42.500000	102.530	174.5124
43.099998	102.494	174.0224
43.700001	102.456	173.5240
44.400002	102.409	172.9638
45.000000	102.369	172.5150
45.500000	102.338	172.1500
46.200001	102.297	171.6320
46.799999	102.259	171.1855
47.500000	102.211	170.6930
48.200001	102.164	170.2455
48.700001	102.134	169.9385
49.400002	102.093	169.4957
50.000000	102.056	169.1024
50.799999	102.000	168.5997
51.500000	101.950	168.2059
52.200001	101.903	167.8370
53.000000	101.853	167.4059
53.799999	101.802	166.9506
54.500000	101.754	166.5531
55.200001	101.703	166.1852
56.000000	101.648	165.8055
57.000000	101.589	165.3325
58.000000	101.530	164.8191
59.000000	101.463	164.3175
60.000000	101.391	163.8989
60.799999	101.339	163.6210
61.500000	101.301	163.3728
62.200001	101.264	163.0849
63.000000	101.215	162.7219
64.000000	101.142	162.3034
65.000000	101.069	161.9738
66.000000	101.007	161.6787
67.000000	100.954	161.3402
68.000000	100.898	160.9563
69.000000	100.834	160.5821
70.000000	100.766	160.2553
71.000000	100.699	159.9814
72.000000	100.635	159.7420
73.000000	100.575	159.5131
74.000000	100.518	159.2805
75.000000	100.462	159.0407
76.199997	100.395	158.7469
77.500000	100.321	158.4341
78.800003	100.246	158.1478
80.000000	100.179	157.9093
81.199997	100.114	157.6831
82.500000	100.047	157.4336
83.800003	99.979	157.1798
85.000000	99.915	156.9478
86.199997	99.852	156.7232
87.500000	99.783	156.4910
88.500000	99.730	156.3203
90.000000	99.650	156.0768
91.199997	99.586	155.8940
92.500000	99.518	155.7057
93.800003	99.450	155.5251
95.000000	99.387	155.3638
96.199997	99.326	155.2081
97.500000	99.261	155.0487
98.800003	99.198	154.9001
100.000000	99.141	154.7740
101.500000	99.071	154.6362
103.000000	99.002	154.5171
104.400002	98.937	154.4137
106.000000	98.861	154.2977
107.500000	98.791	154.1860
109.000000	98.721	154.0721
110.599998	98.648	153.9594
112.000000	98.586	153.8743
113.800003	98.506	153.7845
115.000000	98.454	153.7349
117.199997	98.358	153.6560
118.000000	98.324	153.6302
120.599998	98.215	153.5620
122.000000	98.158	153.5353
124.099998	98.075	153.5056
125.000000	98.040	153.4962
126.500000	97.983	153.4844
128.000000	97.927	153.4751
131.500000	97.801	153.4492
132.000000	97.783	153.4450
134.000000	97.712	153.4283
136.000000	97.642	153.4137
138.000000	97.573	153.4042
140.000000	97.504	153.4015
143.000000	97.401	153.4106
145.000000	97.333	153.4268
147.500000	97.249	153.4583
150.000000	97.166	153.5008
152.500000	97.084	153.5559
155.000000	97.004	153.6211
157.500000	96.926	153.6911
160.000000	96.851	153.7687
162.500000	96.775	153.8614
165.000000	96.702	153.9683
167.500000	96.631	154.0842
170.000000	96.564	154.2072
172.500000	96.500	154.3304
175.000000	96.438	154.4448
177.500000	96.378	154.5499
180.000000	96.317	154.6485
182.500000	96.256	154.7470
185.000000	96.194	154.8491
187.500000	96.133	154.9565
190.000000	96.071	155.0704
192.500000	96.010	155.1899
195.000000	95.950	155.3155
197.500000	95.890	155.4498
200.000000	95.831	155.5925
203.000000	95.762	155.7704
206.000000	95.692	155.9531
209.000000	95.624	156.1417
212.000000	95.556	156.3409
214.000000	95.511	156.4817
218.000000	95.421	156.7852
220.000000	95.376	156.9491
224.000000	95.288	157.3112
227.000000	95.223	157.6202
230.000000	95.160	157.9667
233.000000	95.102	158.3576
236.000000	95.052	158.7957
240.000000	95.005	159.4298
243.000000	94.989	159.8987
247.000000	94.991	160.4246
250.000000	95.004	160.6924
254.000000	95.019	160.8648
258.000000	95.018	160.8848
262.000000	94.997	160.8499
265.000000	94.970	160.8313
269.000000	94.925	160.8409
272.000000	94.886	160.8778
276.000000	94.832	160.9631
280.000000	94.778	161.0826
285.000000	94.712	161.2712
290.000000	94.646	161.4931
295.000000	94.583	161.7405
300.000000	94.523	162.0044
304.000000	94.476	162.2225
307.000000	94.442	162.3895
311.000000	94.399	162.6151
315.000000	94.356	162.8430
320.000000	94.306	163.1347
325.000000	94.260	163.4250
330.000000	94.213	163.7095
335.000000	94.168	163.9927
340.000000	94.124	164.2774
345.000000	94.081	164.5641
350.000000	94.039	164.8506
355.000000	93.999	165.1363
360.000000	93.960	165.4216
365.000000	93.922	165.7056
370.000000	93.885	165.9884
375.000000	93.849	166.2715
382.000000	93.800	166.6673
387.000000	93.766	166.9485
395.000000	93.714	167.3985
400.000000	93.683	167.6797
406.000000	93.646	168.0162
412.000000	93.610	168.3517
418.000000	93.576	168.6868
425.000000	93.537	169.0764
431.000000	93.504	169.4096
437.000000	93.473	169.7419
444.000000	93.438	170.1287
450.000000	93.408	170.4608
455.000000	93.384	170.7369
462.000000	93.351	171.1217
468.000000	93.324	171.4507
475.000000	93.294	171.8349
482.000000	93.265	172.2188
487.000000	93.245	172.4921
494.000000	93.218	172.8737
500.000000	93.196	173.1982
508.000000	93.168	173.6263
515.000000	93.145	173.9967
522.000000	93.122	174.3635
530.000000	93.095	174.7813
538.000000	93.070	175.1993
545.000000	93.048	175.5642
552.000000	93.027	175.9293
560.000000	93.005	176.3479
570.000000	92.977	176.8724
580.000000	92.952	177.3976
590.000000	92.927	177.9237
600.000000	92.904	178.4507
608.000000	92.886	178.8730
615.000000	92.871	179.2440
622.000000	92.857	179.6160
630.000000	92.841	-179.9577
640.000000	92.822	-179.4227
650.000000	92.805	-178.8846
660.000000	92.788	-178.3407
670.000000	92.773	-177.7912
680.000000	92.760	-177.2451
690.000000	92.747	-176.6862
700.000000	92.737	-176.1244
710.000000	92.729	-175.5688
720.000000	92.721	-175.0121
730.000000	92.715	-174.4435
740.000000	92.709	-173.8471
750.000000	92.706	-173.2041
762.000000	92.708	-172.3593
775.000000	92.733	-171.4063
788.000000	92.786	-170.5651
800.000000	92.838	-169.9612
812.000000	92.876	-169.4472
825.000000	92.905	-168.8789
838.000000	92.930	-168.2642
850.000000	92.955	-167.6676
862.000000	92.983	-167.0555
875.000000	93.017	-166.3863
885.000000	93.047	-165.8713
900.000000	93.097	-165.1026
912.000000	93.142	-164.4941
925.000000	93.194	-163.8437
938.000000	93.251	-163.2040
950.000000	93.308	-162.6260
962.000000	93.368	-162.0622
975.000000	93.438	-161.4681
988.000000	93.512	-160.8934
1000.000000	93.585	-160.3839
1015.000000	93.682	-159.7827
1030.000000	93.785	-159.2297
1044.000000	93.887	-158.7645
1060.000000	94.007	-158.3042
1075.000000	94.122	-157.9511
1090.000000	94.237	-157.6762
1106.000000	94.357	-157.4638
1120.000000	94.456	-157.3372
1138.000000	94.576	-157.2387
1150.000000	94.650	-157.2030
1172.000000	94.774	-157.1764
1180.000000	94.816	-157.1747
1206.000000	94.942	-157.1840
1220.000000	95.005	-157.1936
1241.000000	95.092	-157.2095
1250.000000	95.127	-157.2167
1265.000000	95.183	-157.2291
1280.000000	95.237	-157.2412
1315.000000	95.353	-157.2642
1320.000000	95.368	-157.2665
1340.000000	95.428	-157.2725
1360.000000	95.484	-157.2720
1380.000000	95.537	-157.2639
1400.000000	95.588	-157.2482
1430.000000	95.660	-157.2094
1450.000000	95.706	-157.1736
1475.000000	95.762	-157.1171
1500.000000	95.816	-157.0471
1525.000000	95.868	-156.9637
1550.000000	95.920	-156.8688
1575.000000	95.971	-156.7635
1600.000000	96.022	-156.6473
1625.000000	96.072	-156.5214
1650.000000	96.124	-156.3876
1675.000000	96.175	-156.2465
1700.000000	96.228	-156.0983
1725.000000	96.281	-155.9444
1750.000000	96.335	-155.7859
1775.000000	96.390	-155.6241
1800.000000	96.447	-155.4596
1825.000000	96.504	-155.2926
1850.000000	96.563	-155.1244
1875.000000	96.623	-154.9564
1900.000000	96.685	-154.7896
1925.000000	96.748	-154.6243
1950.000000	96.812	-154.4609
1975.000000	96.878	-154.3006
2000.000000	96.946	-154.1441
2030.000000	97.029	-153.9618
2060.000000	97.115	-153.7870
2090.000000	97.202	-153.6211
2120.000000	97.292	-153.4654
2140.000000	97.354	-153.3679
2180.000000	97.480	-153.1885
2200.000000	97.545	-153.1077
2240.000000	97.678	-152.9669
2270.000000	97.781	-152.8820
2300.000000	97.886	-152.8181
2330.000000	97.994	-152.7762
2360.000000	98.104	-152.7571
2400.000000	98.253	-152.7696
2430.000000	98.367	-152.8098
2470.000000	98.522	-152.9074
2500.000000	98.640	-153.0149
2540.000000	98.800	-153.2068
2580.000000	98.961	-153.4598
2620.000000	99.124	-153.7786
2650.000000	99.247	-154.0632
2690.000000	99.410	-154.5061
2720.000000	99.533	-154.8879
2760.000000	99.694	-155.4662
2800.000000	99.852	-156.1250
2850.000000	100.043	-157.0621
2900.000000	100.225	-158.1225
2950.000000	100.396	-159.2985
3000.000000	100.554	-160.5822
3040.000000	100.670	-161.6844
3070.000000	100.752	-162.5539
3110.000000	100.851	-163.7690
3150.000000	100.939	-165.0461
3200.000000	101.032	-166.7269
3250.000000	101.104	-168.4957
3300.000000	101.151	-170.3405
3350.000000	101.172	-172.2452
3400.000000	101.162	-174.1869
3450.000000	101.121	-176.1367
3500.000000	101.048	-178.0609
3550.000000	100.942	-179.9237
3600.000000	100.805	178.3127
3650.000000	100.639	176.6858
3700.000000	100.449	175.2285
3750.000000	100.240	173.9673
3820.000000	99.926	172.5588
3870.000000	99.698	171.8054
3950.000000	99.344	170.9812
4000.000000	99.134	170.6568
4060.000000	98.898	170.4104
4120.000000	98.679	170.2788
4180.000000	98.476	170.2275
4250.000000	98.259	170.2313
4310.000000	98.088	170.2584
4370.000000	97.929	170.2805
4440.000000	97.752	170.2740
4500.000000	97.605	170.2312
4550.000000	97.481	170.1712
4620.000000	97.302	170.0649
4680.000000	97.142	169.9726
4750.000000	96.946	169.8900
4820.000000	96.742	169.8565
4870.000000	96.591	169.8691
4940.000000	96.374	169.9385
5000.000000	96.183	170.0456
5080.000000	95.915	170.2686
5150.000000	95.665	170.5746
5220.000000	95.398	171.0529
5300.000000	95.070	171.9645
5380.000000	94.749	173.5145
5450.000000	94.546	175.4256
5520.000000	94.475	177.3255
5600.000000	94.483	178.6113
5700.000000	94.383	179.2411
5800.000000	94.156	-179.7070
5900.000000	93.932	-177.9997
6000.000000	93.758	-175.9181
6080.000000	93.659	-174.1107
6150.000000	93.604	-172.4817
6220.000000	93.575	-170.8407
6300.000000	93.575	-168.9842
6400.000000	93.618	-166.7394
6500.000000	93.705	-164.6210
6600.000000	93.827	-162.6544
6700.000000	93.980	-160.8441
6800.000000	94.160	-159.1841
6900.000000	94.368	-157.6635
7000.000000	94.605	-156.2741
7100.000000	94.878	-155.0242
7200.000000	95.195	-153.9658
7300.000000	95.560	-153.1973
7400.000000	95.970	-152.8369
7500.000000	96.416	-153.0091
7620.000000	96.977	-154.1089
7750.000000	97.560	-156.6306
7880.000000	98.030	-160.6286
8000.000000	98.280	-165.4317
8120.000000	98.289	-170.8042
8250.000000	98.007	-176.4564
8380.000000	97.458	178.8990
8500.000000	96.787	175.9888
8620.000000	96.039	174.5610
8750.000000	95.228	174.6220
8850.000000	94.652	175.6760
9000.000000	93.939	178.5353
9120.000000	93.540	-178.4810
9250.000000	93.297	-175.0567
9380.000000	93.229	-171.9339
9500.000000	93.269	-169.6472
9620.000000	93.341	-168.0159
9750.000000	93.398	-166.8169
9880.000000	93.405	-165.8741
10000.000000	93.372	-164.9489
10150.000000	93.311	-163.4769
10300.000000	93.276	-161.5785
10440.000000	93.305	-159.4791
10600.000000	93.445	-156.8396
10750.000000	93.707	-154.3068
10900.000000	94.117	-151.9155
11060.000000	94.743	-149.7834
11200.000000	95.477	-148.5639
11380.000000	96.709	-148.5824
11500.000000	97.701	-150.2368
11720.000000	99.628	-159.0638
11800.000000	100.220	-164.7478
12060.000000	100.859	168.9881
12200.000000	100.151	154.3902
12410.000000	98.024	139.1609
12500.000000	96.922	135.4292
12650.000000	95.080	132.0972
12800.000000	93.380	131.2715
13150.000000	90.206	134.3665
13200.000000	89.835	135.1165
13400.000000	88.518	138.4870
13600.000000	87.432	142.1898
13800.000000	86.533	146.0305
14000.000000	85.794	149.9203
14300.000000	84.975	155.4118
14500.000000	84.563	158.3608
14750.000000	84.077	161.4369
15000.000000	83.602	164.2395
15250.000000	83.150	166.9090
15500.000000	82.730	169.4330
15750.000000	82.339	171.8114
16000.000000	81.987	174.0817
16250.000000	81.708	176.1128
16500.000000	81.538	177.4386
16750.000000	81.481	177.1592
17000.000000	81.430	173.9962
17250.000000	81.094	167.1621
17500.000000	80.111	158.2197
17750.000000	78.340	150.9803
18000.000000	76.009	148.1412
18250.000000	73.552	149.1649
18500.000000	71.273	151.9808
18750.000000	69.205	155.1516
19000.000000	67.254	158.2195
19250.000000	65.354	161.0065
19500.000000	63.452	163.2936
19750.000000	61.563	165.0626
