* Measurement data measured by REW V5.20.13
* Source: Headset (KM-HIFI-384KHZ), MICROPHONE (Master Volume), R, volume: 0.250
* Format: 256k Log Swept Sine, 1 sweep at -13.0 dBFS with no timing reference
* Dated: Aug 7, 2023 12:09:04 AM
* REW Settings:
*  C-weighting compensation: Off
*  Target level: 75.0 dB
* Note: 
* Measurement: Aug 7
* Smoothing: 1/24 octave
* Frequency Step: 1/48 octave
* Start Frequency: 20.000 Hz
*
* Freq(Hz)	SPL(dB)	Phase(degrees)
20.000000	83.010	-143.9270
20.299999	83.036	-144.3325
20.600000	83.062	-144.7277
20.900000	83.088	-145.1137
21.200001	83.113	-145.4914
21.400000	83.130	-145.7387
21.799999	83.162	-146.2224
22.000000	83.178	-146.4591
22.400000	83.209	-146.9227
22.700001	83.232	-147.2624
23.000000	83.254	-147.5952
23.299999	83.276	-147.9205
23.600000	83.296	-148.2376
24.000000	83.323	-148.6467
24.299999	83.343	-148.9435
24.700001	83.369	-149.3276
25.000000	83.388	-149.6088
25.400000	83.414	-149.9761
25.799999	83.439	-150.3354
26.200001	83.462	-150.6858
26.500000	83.479	-150.9420
26.900000	83.502	-151.2748
27.200001	83.518	-151.5183
27.600000	83.540	-151.8360
28.000000	83.561	-152.1471
28.500000	83.587	-152.5273
29.000000	83.611	-152.8971
29.500000	83.635	-153.2558
30.000000	83.658	-153.6043
30.400000	83.676	-153.8769
30.700001	83.689	-154.0780
31.100000	83.706	-154.3408
31.500000	83.722	-154.5965
32.000000	83.743	-154.9052
32.500000	83.763	-155.2043
33.000000	83.784	-155.4998
33.500000	83.805	-155.7951
34.000000	83.823	-156.0864
34.500000	83.841	-156.3661
35.000000	83.858	-156.6315
35.500000	83.875	-156.8877
36.000000	83.892	-157.1421
36.500000	83.909	-157.3960
37.000000	83.924	-157.6441
37.500000	83.939	-157.8812
38.200001	83.959	-158.1967
38.700001	83.974	-158.4177
39.500000	83.998	-158.7725
40.000000	84.011	-158.9924
40.599998	84.026	-159.2484
41.200001	84.040	-159.4914
41.799999	84.054	-159.7234
42.500000	84.072	-159.9890
43.099998	84.087	-160.2173
43.700001	84.102	-160.4436
44.400002	84.117	-160.7009
45.000000	84.130	-160.9148
45.500000	84.140	-161.0881
46.200001	84.153	-161.3214
46.799999	84.165	-161.5143
47.500000	84.178	-161.7364
48.200001	84.191	-161.9548
48.700001	84.200	-162.1059
49.400002	84.212	-162.3105
50.000000	84.222	-162.4839
50.799999	84.236	-162.7161
51.500000	84.246	-162.9162
52.200001	84.257	-163.1087
53.000000	84.268	-163.3195
53.799999	84.280	-163.5251
54.500000	84.290	-163.7022
55.200001	84.300	-163.8742
56.000000	84.310	-164.0631
57.000000	84.323	-164.2906
58.000000	84.335	-164.5111
59.000000	84.346	-164.7262
60.000000	84.356	-164.9355
60.799999	84.365	-165.0982
61.500000	84.372	-165.2386
62.200001	84.380	-165.3791
63.000000	84.388	-165.5394
64.000000	84.398	-165.7348
65.000000	84.407	-165.9216
66.000000	84.415	-166.0982
67.000000	84.424	-166.2627
68.000000	84.433	-166.4253
69.000000	84.442	-166.5909
70.000000	84.449	-166.7525
71.000000	84.456	-166.9101
72.000000	84.462	-167.0641
73.000000	84.468	-167.2117
74.000000	84.475	-167.3544
75.000000	84.482	-167.4946
76.199997	84.490	-167.6564
77.500000	84.498	-167.8228
78.800003	84.505	-167.9846
80.000000	84.511	-168.1254
81.199997	84.517	-168.2643
82.500000	84.523	-168.4166
83.800003	84.528	-168.5647
85.000000	84.534	-168.6977
86.199997	84.539	-168.8269
87.500000	84.545	-168.9617
88.500000	84.548	-169.0608
90.000000	84.554	-169.2032
91.199997	84.558	-169.3118
92.500000	84.562	-169.4262
93.800003	84.567	-169.5398
95.000000	84.571	-169.6434
96.199997	84.575	-169.7448
97.500000	84.579	-169.8482
98.800003	84.583	-169.9461
100.000000	84.586	-170.0364
101.500000	84.589	-170.1502
103.000000	84.592	-170.2629
104.400002	84.594	-170.3621
106.000000	84.597	-170.4675
107.500000	84.600	-170.5630
109.000000	84.602	-170.6575
110.599998	84.604	-170.7513
112.000000	84.605	-170.8273
113.800003	84.608	-170.9198
115.000000	84.610	-170.9794
117.199997	84.613	-171.0854
118.000000	84.614	-171.1241
120.599998	84.617	-171.2531
122.000000	84.618	-171.3219
124.099998	84.620	-171.4185
125.000000	84.621	-171.4588
126.500000	84.623	-171.5262
128.000000	84.624	-171.5935
131.500000	84.627	-171.7343
132.000000	84.627	-171.7523
134.000000	84.629	-171.8223
136.000000	84.630	-171.8878
138.000000	84.631	-171.9504
140.000000	84.631	-172.0105
143.000000	84.632	-172.0945
145.000000	84.632	-172.1538
147.500000	84.632	-172.2238
150.000000	84.633	-172.2869
152.500000	84.634	-172.3450
155.000000	84.634	-172.3971
157.500000	84.634	-172.4428
160.000000	84.634	-172.4852
162.500000	84.634	-172.5297
165.000000	84.633	-172.5717
167.500000	84.631	-172.6060
170.000000	84.630	-172.6377
172.500000	84.628	-172.6729
175.000000	84.628	-172.7071
177.500000	84.628	-172.7351
180.000000	84.629	-172.7572
182.500000	84.629	-172.7758
185.000000	84.628	-172.7955
187.500000	84.627	-172.8174
190.000000	84.626	-172.8379
192.500000	84.625	-172.8557
195.000000	84.625	-172.8699
197.500000	84.624	-172.8813
200.000000	84.622	-172.8919
203.000000	84.620	-172.8979
206.000000	84.619	-172.8961
209.000000	84.618	-172.8962
212.000000	84.616	-172.9016
214.000000	84.614	-172.9043
218.000000	84.610	-172.9027
220.000000	84.608	-172.8987
224.000000	84.606	-172.8905
227.000000	84.605	-172.8858
230.000000	84.603	-172.8810
233.000000	84.601	-172.8721
236.000000	84.599	-172.8555
240.000000	84.597	-172.8287
243.000000	84.595	-172.8110
247.000000	84.594	-172.7896
250.000000	84.592	-172.7721
254.000000	84.590	-172.7465
258.000000	84.587	-172.7124
262.000000	84.585	-172.6680
265.000000	84.583	-172.6371
269.000000	84.580	-172.5986
272.000000	84.578	-172.5691
276.000000	84.574	-172.5272
280.000000	84.571	-172.4818
285.000000	84.566	-172.4219
290.000000	84.562	-172.3587
295.000000	84.557	-172.2892
300.000000	84.552	-172.2171
304.000000	84.549	-172.1572
307.000000	84.546	-172.1115
311.000000	84.542	-172.0499
315.000000	84.539	-171.9847
320.000000	84.535	-171.9014
325.000000	84.531	-171.8203
330.000000	84.527	-171.7336
335.000000	84.523	-171.6430
340.000000	84.519	-171.5514
345.000000	84.515	-171.4589
350.000000	84.511	-171.3646
355.000000	84.507	-171.2674
360.000000	84.502	-171.1692
365.000000	84.497	-171.0706
370.000000	84.492	-170.9674
375.000000	84.488	-170.8596
382.000000	84.481	-170.7048
387.000000	84.477	-170.5904
395.000000	84.471	-170.4023
400.000000	84.466	-170.2838
406.000000	84.461	-170.1355
412.000000	84.455	-169.9833
418.000000	84.449	-169.8282
425.000000	84.442	-169.6455
431.000000	84.436	-169.4869
437.000000	84.430	-169.3233
444.000000	84.423	-169.1250
450.000000	84.416	-168.9505
455.000000	84.411	-168.8016
462.000000	84.404	-168.5818
468.000000	84.398	-168.3854
475.000000	84.390	-168.1516
482.000000	84.383	-167.9107
487.000000	84.378	-167.7335
494.000000	84.370	-167.4758
500.000000	84.364	-167.2429
508.000000	84.357	-166.9169
515.000000	84.352	-166.6157
522.000000	84.349	-166.2975
530.000000	84.350	-165.9152
538.000000	84.356	-165.5167
545.000000	84.365	-165.1674
552.000000	84.379	-164.8331
560.000000	84.400	-164.4759
570.000000	84.431	-164.0778
580.000000	84.460	-163.7378
590.000000	84.485	-163.4467
600.000000	84.504	-163.1729
608.000000	84.515	-162.9518
615.000000	84.522	-162.7512
622.000000	84.527	-162.5377
630.000000	84.531	-162.2767
640.000000	84.535	-161.9324
650.000000	84.540	-161.5673
660.000000	84.545	-161.1801
670.000000	84.551	-160.7738
680.000000	84.559	-160.3490
690.000000	84.569	-159.9080
700.000000	84.580	-159.4563
710.000000	84.593	-158.9929
720.000000	84.609	-158.5169
730.000000	84.627	-158.0327
740.000000	84.646	-157.5421
750.000000	84.669	-157.0452
762.000000	84.700	-156.4419
775.000000	84.736	-155.7778
788.000000	84.777	-155.1019
800.000000	84.819	-154.4701
812.000000	84.865	-153.8351
825.000000	84.920	-153.1481
838.000000	84.979	-152.4624
850.000000	85.039	-151.8290
862.000000	85.102	-151.1939
875.000000	85.176	-150.5089
885.000000	85.236	-149.9871
900.000000	85.334	-149.2153
912.000000	85.418	-148.6113
925.000000	85.514	-147.9738
938.000000	85.616	-147.3571
950.000000	85.716	-146.8118
962.000000	85.820	-146.2930
975.000000	85.936	-145.7636
988.000000	86.057	-145.2725
1000.000000	86.171	-144.8530
1015.000000	86.318	-144.3744
1030.000000	86.467	-143.9507
1044.000000	86.609	-143.6049
1060.000000	86.773	-143.2658
1075.000000	86.927	-143.0049
1090.000000	87.081	-142.7988
1106.000000	87.243	-142.6372
1120.000000	87.384	-142.5429
1138.000000	87.563	-142.4838
1150.000000	87.680	-142.4807
1172.000000	87.889	-142.5435
1180.000000	87.963	-142.5861
1206.000000	88.194	-142.7897
1220.000000	88.314	-142.9350
1241.000000	88.486	-143.1927
1250.000000	88.557	-143.3152
1265.000000	88.673	-143.5322
1280.000000	88.784	-143.7645
1315.000000	89.027	-144.3479
1320.000000	89.060	-144.4334
1340.000000	89.186	-144.7789
1360.000000	89.306	-145.1322
1380.000000	89.421	-145.4888
1400.000000	89.530	-145.8414
1430.000000	89.685	-146.3585
1450.000000	89.783	-146.6958
1475.000000	89.903	-147.1053
1500.000000	90.018	-147.5004
1525.000000	90.129	-147.8858
1550.000000	90.238	-148.2631
1575.000000	90.346	-148.6299
1600.000000	90.452	-148.9870
1625.000000	90.558	-149.3383
1650.000000	90.662	-149.6838
1675.000000	90.767	-150.0252
1700.000000	90.871	-150.3674
1725.000000	90.975	-150.7118
1750.000000	91.079	-151.0598
1775.000000	91.183	-151.4130
1800.000000	91.288	-151.7726
1825.000000	91.394	-152.1407
1850.000000	91.499	-152.5214
1875.000000	91.605	-152.9143
1900.000000	91.710	-153.3224
1925.000000	91.816	-153.7487
1950.000000	91.922	-154.1912
1975.000000	92.028	-154.6497
2000.000000	92.133	-155.1272
2030.000000	92.260	-155.7289
2060.000000	92.386	-156.3635
2090.000000	92.511	-157.0322
2120.000000	92.634	-157.7379
2140.000000	92.715	-158.2281
2180.000000	92.873	-159.2542
2200.000000	92.950	-159.7903
2240.000000	93.100	-160.9154
2270.000000	93.207	-161.8049
2300.000000	93.309	-162.7285
2330.000000	93.406	-163.6830
2360.000000	93.498	-164.6704
2400.000000	93.610	-166.0401
2430.000000	93.686	-167.1007
2470.000000	93.777	-168.5488
2500.000000	93.837	-169.6579
2540.000000	93.906	-171.1677
2580.000000	93.960	-172.7058
2620.000000	93.999	-174.2611
2650.000000	94.019	-175.4343
2690.000000	94.034	-177.0008
2720.000000	94.035	-178.1720
2760.000000	94.025	-179.7238
2800.000000	93.999	178.7413
2850.000000	93.949	176.8602
2900.000000	93.880	175.0341
2950.000000	93.793	173.2779
3000.000000	93.691	171.5988
3040.000000	93.599	170.3152
3070.000000	93.525	169.3882
3110.000000	93.420	168.2032
3150.000000	93.309	167.0785
3200.000000	93.163	165.7560
3250.000000	93.012	164.5280
3300.000000	92.857	163.3917
3350.000000	92.700	162.3410
3400.000000	92.541	161.3719
3450.000000	92.383	160.4819
3500.000000	92.225	159.6644
3550.000000	92.069	158.9125
3600.000000	91.916	158.2200
3650.000000	91.766	157.5846
3700.000000	91.619	157.0006
3750.000000	91.477	156.4584
3820.000000	91.283	155.7580
3870.000000	91.149	155.2932
3950.000000	90.943	154.5952
4000.000000	90.818	154.1794
4060.000000	90.673	153.6919
4120.000000	90.533	153.2122
4180.000000	90.397	152.7322
4250.000000	90.242	152.1602
4310.000000	90.111	151.6521
4370.000000	89.982	151.1236
4440.000000	89.833	150.4747
4500.000000	89.704	149.8871
4550.000000	89.595	149.3746
4620.000000	89.440	148.6204
4680.000000	89.302	147.9379
4750.000000	89.135	147.1002
4820.000000	88.959	146.2230
4870.000000	88.827	145.5780
4940.000000	88.633	144.6554
5000.000000	88.456	143.8516
5080.000000	88.205	142.7749
5150.000000	87.970	141.8434
5220.000000	87.720	140.9361
5300.000000	87.415	139.9490
5380.000000	87.092	139.0359
5450.000000	86.794	138.3123
5520.000000	86.484	137.6732
5600.000000	86.116	137.0615
5700.000000	85.639	136.4896
5800.000000	85.148	136.1391
5900.000000	84.646	136.0272
6000.000000	84.141	136.1575
6080.000000	83.735	136.4310
6150.000000	83.382	136.7917
6220.000000	83.032	137.2603
6300.000000	82.638	137.9208
6400.000000	82.155	138.9226
6500.000000	81.685	140.1079
6600.000000	81.231	141.4587
6700.000000	80.794	142.9640
6800.000000	80.377	144.6161
6900.000000	79.980	146.3990
7000.000000	79.604	148.2979
7100.000000	79.253	150.3041
7200.000000	78.928	152.3970
7300.000000	78.627	154.5443
7400.000000	78.348	156.7338
7500.000000	78.090	158.9705
7620.000000	77.808	161.7148
7750.000000	77.533	164.7509
7880.000000	77.296	167.8191
8000.000000	77.116	170.6431
8120.000000	76.970	173.4398
8250.000000	76.845	176.4018
8380.000000	76.749	179.2531
8500.000000	76.672	-178.2431
8620.000000	76.582	-175.7997
8750.000000	76.449	-172.8609
8850.000000	76.360	-170.0407
9000.000000	76.413	-165.0850
9120.000000	76.651	-161.4640
9250.000000	76.994	-158.4533
9380.000000	77.348	-156.1956
9500.000000	77.674	-154.5522
9620.000000	78.007	-153.2477
9750.000000	78.375	-152.2138
9880.000000	78.745	-151.5944
10000.000000	79.084	-151.4299
10150.000000	79.497	-151.8250
10300.000000	79.885	-152.9236
10440.000000	80.208	-154.5970
10600.000000	80.512	-157.2827
10750.000000	80.711	-160.5438
10900.000000	80.804	-164.5096
11060.000000	80.754	-169.4716
11200.000000	80.551	-174.3408
11380.000000	80.018	178.9707
11500.000000	79.467	174.5496
11720.000000	78.019	167.6346
11800.000000	77.362	165.8067
12060.000000	74.881	163.4349
12200.000000	73.408	164.7153
12410.000000	71.183	170.7191
12500.000000	70.323	174.6627
12650.000000	69.135	-177.8241
12800.000000	68.245	-169.8085
13150.000000	67.113	-150.8214
13200.000000	67.046	-148.1926
13400.000000	66.972	-138.1409
13600.000000	67.166	-129.0115
13800.000000	67.586	-120.9229
14000.000000	68.209	-113.9117
14300.000000	69.541	-105.5178
14500.000000	70.731	-101.7426
14750.000000	72.564	-100.2313
15000.000000	74.600	-104.4106
15250.000000	76.263	-116.8762
15500.000000	76.772	-136.6602
15750.000000	75.784	-156.2831
16000.000000	73.700	-168.9980
16250.000000	71.209	-174.4451
16500.000000	68.750	-174.4420
16750.000000	66.607	-170.7491
17000.000000	64.973	-166.2609
17250.000000	63.620	-163.0537
17500.000000	62.159	-160.5974
17750.000000	60.406	-157.0649
18000.000000	58.376	-150.8576
18250.000000	56.231	-141.1720
18500.000000	54.181	-128.0884
18750.000000	52.462	-112.3537
19000.000000	51.231	-95.2763
19250.000000	50.447	-78.4581
19500.000000	49.927	-62.8410
19750.000000	49.522	-49.6497
