* Measurement data measured by REW V5.20.13
* Source: EXCL: Headset (KM-HIFI-384KHZ), MICROPHONE (Master Volume), 0, volume: 0.250
* Format: 256k Log Swept Sine, 1 sweep at -13.0 dBFS with no timing reference
* Dated: Sep 9, 2023 6:03:59 PM
* REW Settings:
*  C-weighting compensation: Off
*  Target level: 75.0 dB
* Note: ; 
* Measurement: Hexa L
* Smoothing: 1/24 octave
* Frequency Step: 1/48 octave
* Start Frequency: 20.000 Hz
*
* Freq(Hz)	SPL(dB)	Phase(degrees)
20.000000	100.583	14.7665
20.299999	100.564	14.0961
20.600000	100.544	13.4521
20.900000	100.523	12.8356
21.200001	100.505	12.2416
21.400000	100.493	11.8529
21.799999	100.471	11.0851
22.000000	100.460	10.7035
22.400000	100.435	9.9471
22.700001	100.414	9.3940
23.000000	100.391	8.8627
23.299999	100.367	8.3574
23.600000	100.344	7.8773
24.000000	100.314	7.2678
24.299999	100.293	6.8236
24.700001	100.268	6.2350
25.000000	100.249	5.7899
25.400000	100.222	5.1887
25.799999	100.190	4.5851
26.200001	100.153	3.9991
26.500000	100.121	3.5883
26.900000	100.077	3.0958
27.200001	100.047	2.7678
27.600000	100.014	2.3633
28.000000	99.991	1.9478
28.500000	99.968	1.3494
29.000000	99.935	0.6740
29.500000	99.886	0.0206
30.000000	99.830	-0.5181
30.400000	99.792	-0.8730
30.700001	99.769	-1.1250
31.100000	99.745	-1.4813
31.500000	99.721	-1.8719
32.000000	99.685	-2.3741
32.500000	99.642	-2.8342
33.000000	99.602	-3.2406
33.500000	99.565	-3.6312
34.000000	99.529	-4.0330
34.500000	99.488	-4.4264
35.000000	99.445	-4.7800
35.500000	99.405	-5.0953
36.000000	99.371	-5.4099
36.500000	99.339	-5.7563
37.000000	99.303	-6.1345
37.500000	99.260	-6.5151
38.200001	99.193	-6.9907
38.700001	99.145	-7.2743
39.500000	99.079	-7.6733
40.000000	99.045	-7.9255
40.599998	99.006	-8.2506
41.200001	98.965	-8.5878
41.799999	98.921	-8.9112
42.500000	98.870	-9.2526
43.099998	98.828	-9.5233
43.700001	98.787	-9.7889
44.400002	98.738	-10.0951
45.000000	98.694	-10.3463
45.500000	98.657	-10.5447
46.200001	98.605	-10.8089
46.799999	98.562	-11.0274
47.500000	98.512	-11.2796
48.200001	98.462	-11.5317
48.700001	98.427	-11.7074
49.400002	98.379	-11.9413
50.000000	98.339	-12.1357
50.799999	98.289	-12.3995
51.500000	98.245	-12.6277
52.200001	98.200	-12.8391
53.000000	98.150	-13.0599
53.799999	98.101	-13.2640
54.500000	98.058	-13.4283
55.200001	98.015	-13.5802
56.000000	97.967	-13.7444
57.000000	97.907	-13.9454
58.000000	97.847	-14.1437
59.000000	97.786	-14.3315
60.000000	97.728	-14.5112
60.799999	97.682	-14.6548
61.500000	97.642	-14.7774
62.200001	97.603	-14.8931
63.000000	97.559	-15.0153
64.000000	97.505	-15.1545
65.000000	97.453	-15.2890
66.000000	97.400	-15.4209
67.000000	97.347	-15.5338
68.000000	97.296	-15.6339
69.000000	97.247	-15.7384
70.000000	97.197	-15.8374
71.000000	97.148	-15.9213
72.000000	97.101	-16.0056
73.000000	97.053	-16.0924
74.000000	97.005	-16.1626
75.000000	96.959	-16.2194
76.199997	96.905	-16.2833
77.500000	96.848	-16.3480
78.800003	96.792	-16.4158
80.000000	96.739	-16.4725
81.199997	96.687	-16.5159
82.500000	96.632	-16.5498
83.800003	96.579	-16.5851
85.000000	96.530	-16.6022
86.199997	96.484	-16.6043
87.500000	96.437	-16.6251
88.500000	96.399	-16.6439
90.000000	96.343	-16.6542
91.199997	96.299	-16.6487
92.500000	96.253	-16.6356
93.800003	96.209	-16.6259
95.000000	96.169	-16.6232
96.199997	96.128	-16.6255
97.500000	96.083	-16.6254
98.800003	96.038	-16.6159
100.000000	95.997	-16.5974
101.500000	95.949	-16.5631
103.000000	95.903	-16.5247
104.400002	95.861	-16.4905
106.000000	95.813	-16.4547
107.500000	95.768	-16.4164
109.000000	95.722	-16.3724
110.599998	95.674	-16.3234
112.000000	95.632	-16.2758
113.800003	95.579	-16.2051
115.000000	95.544	-16.1564
117.199997	95.482	-16.0720
118.000000	95.458	-16.0389
120.599998	95.384	-15.8977
122.000000	95.346	-15.8076
124.099998	95.291	-15.6703
125.000000	95.267	-15.6062
126.500000	95.228	-15.4912
128.000000	95.190	-15.3699
131.500000	95.107	-15.0525
132.000000	95.096	-15.0055
134.000000	95.055	-14.8291
136.000000	95.015	-14.6721
138.000000	94.976	-14.5244
140.000000	94.936	-14.3815
143.000000	94.871	-14.1664
145.000000	94.822	-14.0107
147.500000	94.754	-13.7676
150.000000	94.683	-13.4229
152.500000	94.615	-12.9475
155.000000	94.560	-12.3214
157.500000	94.534	-11.5564
160.000000	94.560	-10.7657
162.500000	94.634	-10.1493
165.000000	94.733	-9.8812
167.500000	94.819	-9.9922
170.000000	94.867	-10.3431
172.500000	94.875	-10.7426
175.000000	94.856	-11.0687
177.500000	94.821	-11.2567
180.000000	94.778	-11.2936
182.500000	94.734	-11.2523
185.000000	94.694	-11.1775
187.500000	94.669	-11.0986
190.000000	94.656	-11.0503
192.500000	94.644	-11.0403
195.000000	94.625	-11.0544
197.500000	94.599	-11.0735
200.000000	94.569	-11.0837
203.000000	94.531	-11.0657
206.000000	94.493	-11.0176
209.000000	94.457	-10.9506
212.000000	94.422	-10.8668
214.000000	94.400	-10.8021
218.000000	94.357	-10.6606
220.000000	94.336	-10.5862
224.000000	94.295	-10.4315
227.000000	94.265	-10.3137
230.000000	94.236	-10.1956
233.000000	94.208	-10.0768
236.000000	94.182	-9.9555
240.000000	94.147	-9.7886
243.000000	94.122	-9.6633
247.000000	94.089	-9.4967
250.000000	94.065	-9.3683
254.000000	94.033	-9.1952
258.000000	94.003	-9.0222
262.000000	93.974	-8.8510
265.000000	93.952	-8.7241
269.000000	93.922	-8.5537
272.000000	93.900	-8.4243
276.000000	93.871	-8.2512
280.000000	93.842	-8.0750
285.000000	93.805	-7.8494
290.000000	93.770	-7.6159
295.000000	93.733	-7.3749
300.000000	93.697	-7.1295
304.000000	93.669	-6.9291
307.000000	93.647	-6.7748
311.000000	93.618	-6.5600
315.000000	93.588	-6.3318
320.000000	93.549	-6.0248
325.000000	93.508	-5.6787
330.000000	93.469	-5.2650
335.000000	93.435	-4.7610
340.000000	93.413	-4.1511
345.000000	93.418	-3.4603
350.000000	93.460	-2.7960
355.000000	93.535	-2.3304
360.000000	93.619	-2.1764
365.000000	93.683	-2.2882
370.000000	93.714	-2.5197
375.000000	93.716	-2.7421
382.000000	93.692	-2.9360
387.000000	93.666	-2.9847
395.000000	93.622	-2.9493
400.000000	93.595	-2.8778
406.000000	93.563	-2.7551
412.000000	93.533	-2.6016
418.000000	93.503	-2.4305
425.000000	93.471	-2.2185
431.000000	93.445	-2.0250
437.000000	93.419	-1.8265
444.000000	93.392	-1.5917
450.000000	93.369	-1.3834
455.000000	93.351	-1.2034
462.000000	93.326	-0.9478
468.000000	93.305	-0.7296
475.000000	93.283	-0.4740
482.000000	93.261	-0.2147
487.000000	93.246	-0.0270
494.000000	93.226	0.2371
500.000000	93.209	0.4645
508.000000	93.187	0.7711
515.000000	93.169	1.0413
522.000000	93.151	1.3127
530.000000	93.131	1.6271
538.000000	93.112	1.9462
545.000000	93.096	2.2276
552.000000	93.081	2.5099
560.000000	93.064	2.8340
570.000000	93.043	3.2423
580.000000	93.023	3.6588
590.000000	93.004	4.0839
600.000000	92.987	4.5126
608.000000	92.974	4.8577
615.000000	92.963	5.1611
622.000000	92.953	5.4668
630.000000	92.942	5.8192
640.000000	92.930	6.2652
650.000000	92.919	6.7144
660.000000	92.909	7.1658
670.000000	92.901	7.6233
680.000000	92.894	8.0842
690.000000	92.889	8.5497
700.000000	92.884	9.0219
710.000000	92.881	9.4998
720.000000	92.880	9.9824
730.000000	92.881	10.4688
740.000000	92.883	10.9569
750.000000	92.888	11.4464
762.000000	92.896	12.0387
775.000000	92.908	12.6862
788.000000	92.923	13.3385
800.000000	92.941	13.9425
812.000000	92.962	14.5439
825.000000	92.990	15.1919
838.000000	93.022	15.8354
850.000000	93.054	16.4257
862.000000	93.090	17.0109
875.000000	93.133	17.6345
885.000000	93.169	18.1069
900.000000	93.227	18.8018
912.000000	93.277	19.3395
925.000000	93.336	19.9023
938.000000	93.398	20.4460
950.000000	93.457	20.9294
962.000000	93.520	21.3920
975.000000	93.590	21.8675
988.000000	93.662	22.3159
1000.000000	93.731	22.7059
1015.000000	93.818	23.1593
1030.000000	93.907	23.5712
1044.000000	93.992	23.9174
1060.000000	94.089	24.2700
1075.000000	94.180	24.5613
1090.000000	94.269	24.8174
1106.000000	94.362	25.0537
1120.000000	94.443	25.2284
1138.000000	94.543	25.4088
1150.000000	94.608	25.5058
1172.000000	94.722	25.6503
1180.000000	94.762	25.6929
1206.000000	94.886	25.7898
1220.000000	94.949	25.8201
1241.000000	95.037	25.8490
1250.000000	95.073	25.8572
1265.000000	95.131	25.8661
1280.000000	95.185	25.8692
1315.000000	95.303	25.8652
1320.000000	95.318	25.8646
1340.000000	95.378	25.8639
1360.000000	95.435	25.8680
1380.000000	95.487	25.8782
1400.000000	95.537	25.8959
1430.000000	95.608	25.9415
1450.000000	95.652	25.9863
1475.000000	95.706	26.0567
1500.000000	95.757	26.1411
1525.000000	95.807	26.2356
1550.000000	95.855	26.3509
1575.000000	95.904	26.4883
1600.000000	95.953	26.6360
1625.000000	96.004	26.7947
1650.000000	96.055	26.9692
1675.000000	96.107	27.1571
1700.000000	96.160	27.3525
1725.000000	96.217	27.5552
1750.000000	96.277	27.7679
1775.000000	96.340	27.9835
1800.000000	96.406	28.1886
1825.000000	96.475	28.3801
1850.000000	96.544	28.5615
1875.000000	96.615	28.7294
1900.000000	96.688	28.8855
1925.000000	96.762	29.0378
1950.000000	96.838	29.1883
1975.000000	96.915	29.3344
2000.000000	96.994	29.4731
2030.000000	97.092	29.6259
2060.000000	97.192	29.7635
2090.000000	97.295	29.8838
2120.000000	97.401	29.9812
2140.000000	97.474	30.0339
2180.000000	97.623	30.1085
2200.000000	97.699	30.1276
2240.000000	97.855	30.1281
2270.000000	97.973	30.0968
2300.000000	98.093	30.0333
2330.000000	98.215	29.9335
2360.000000	98.339	29.7977
2400.000000	98.504	29.5599
2430.000000	98.629	29.3367
2470.000000	98.794	28.9767
2500.000000	98.917	28.6589
2540.000000	99.079	28.1773
2580.000000	99.237	27.6381
2620.000000	99.391	27.0525
2650.000000	99.503	26.5934
2690.000000	99.654	25.9718
2720.000000	99.770	25.5018
2760.000000	99.937	24.8412
2800.000000	100.120	24.0613
2850.000000	100.362	22.7742
2900.000000	100.587	21.0900
2950.000000	100.773	19.0983
3000.000000	100.915	16.9170
3040.000000	100.998	15.0850
3070.000000	101.043	13.6732
3110.000000	101.080	11.7500
3150.000000	101.091	9.7894
3200.000000	101.067	7.3083
3250.000000	100.997	4.8314
3300.000000	100.880	2.4112
3350.000000	100.717	0.1100
3400.000000	100.514	-2.0098
3450.000000	100.278	-3.8995
3500.000000	100.017	-5.5315
3550.000000	99.742	-6.9055
3600.000000	99.459	-8.0410
3650.000000	99.173	-8.9568
3700.000000	98.886	-9.6688
3750.000000	98.601	-10.1913
3820.000000	98.209	-10.6288
3870.000000	97.937	-10.7502
3950.000000	97.516	-10.6448
4000.000000	97.262	-10.3983
4060.000000	96.968	-9.9155
4120.000000	96.692	-9.2301
4180.000000	96.441	-8.3689
4250.000000	96.186	-7.2034
4310.000000	95.998	-6.1243
4370.000000	95.837	-5.0173
4440.000000	95.677	-3.7251
4500.000000	95.562	-2.6322
4550.000000	95.479	-1.7391
4620.000000	95.379	-0.5253
4680.000000	95.308	0.4730
4750.000000	95.238	1.5833
4820.000000	95.179	2.6379
4870.000000	95.142	3.3604
4940.000000	95.095	4.3367
5000.000000	95.058	5.1492
5080.000000	95.014	6.2128
5150.000000	94.980	7.1389
5220.000000	94.952	8.0692
5300.000000	94.928	9.1370
5380.000000	94.916	10.1987
5450.000000	94.914	11.1121
5520.000000	94.920	12.0036
5600.000000	94.935	12.9905
5700.000000	94.967	14.1707
5800.000000	95.008	15.2867
5900.000000	95.056	16.3380
6000.000000	95.110	17.3275
6080.000000	95.157	18.0735
6150.000000	95.198	18.6874
6220.000000	95.237	19.2583
6300.000000	95.269	19.8887
6400.000000	95.287	20.8406
6500.000000	95.323	22.1682
6600.000000	95.441	23.6314
6700.000000	95.606	24.8489
6800.000000	95.792	25.9631
6900.000000	96.018	27.0427
7000.000000	96.297	28.0203
7100.000000	96.634	28.7977
7200.000000	97.031	29.2657
7300.000000	97.487	29.2993
7400.000000	97.996	28.7572
7500.000000	98.545	27.4797
7620.000000	99.224	24.7194
7750.000000	99.904	19.9565
7880.000000	100.433	13.3001
8000.000000	100.668	5.5370
8120.000000	100.547	-2.9469
8250.000000	100.009	-11.5903
8380.000000	99.136	-18.5833
8500.000000	98.151	-23.1620
8620.000000	97.099	-25.9899
8750.000000	95.971	-27.3752
8850.000000	95.148	-27.4869
9000.000000	94.017	-26.4753
9120.000000	93.212	-24.8990
9250.000000	92.440	-22.6307
9380.000000	91.769	-19.9349
9500.000000	91.234	-17.1707
9620.000000	90.776	-14.2178
9750.000000	90.361	-10.8799
9880.000000	90.025	-7.4653
10000.000000	89.784	-4.2950
10150.000000	89.569	-0.3760
10300.000000	89.445	3.4122
10440.000000	89.405	6.7562
10600.000000	89.439	10.2600
10750.000000	89.533	13.1473
10900.000000	89.664	15.6079
11060.000000	89.825	17.8411
11200.000000	89.990	19.4879
11380.000000	90.222	20.9902
11500.000000	90.364	21.6002
11720.000000	90.573	22.1653
11800.000000	90.632	22.2598
12060.000000	90.777	22.3806
12200.000000	90.844	22.3773
12410.000000	90.957	22.2513
12500.000000	91.014	22.1194
12650.000000	91.123	21.7323
12800.000000	91.244	21.0638
13150.000000	91.503	18.1129
13200.000000	91.530	17.5320
13400.000000	91.598	14.8663
13600.000000	91.586	11.7574
13800.000000	91.474	8.4299
14000.000000	91.266	5.1796
14300.000000	90.826	0.9953
14500.000000	90.505	-1.2637
14750.000000	90.105	-3.7550
15000.000000	89.688	-5.9892
15250.000000	89.244	-7.9471
15500.000000	88.764	-9.6145
15750.000000	88.232	-10.9036
16000.000000	87.626	-11.6141
16250.000000	86.929	-11.4115
16500.000000	86.119	-9.4658
16750.000000	85.364	-3.1247
17000.000000	86.366	10.6163
17250.000000	89.852	18.6979
17500.000000	92.054	1.8539
17750.000000	92.174	-24.2732
18000.000000	91.103	-46.0197
18250.000000	89.236	-62.5621
18500.000000	86.779	-72.8046
18750.000000	84.179	-77.2086
19000.000000	81.881	-78.4212
19250.000000	79.939	-78.4084
19500.000000	78.155	-77.2725
19750.000000	76.509	-75.1047
