* Measurement data measured by REW V5.20.13
* Source: EXCL: Headset (KM-HIFI-384KHZ), MICROPHONE (Master Volume), 0, volume: 0.250
* Format: 256k Log Swept Sine, 1 sweep at -13.0 dBFS with no timing reference
* Dated: Sep 9, 2023 6:29:32 PM
* REW Settings:
*  C-weighting compensation: Off
*  Target level: 75.0 dB
* Note: ; 
* Measurement: Kato L
* Smoothing: 1/24 octave
* Frequency Step: 1/48 octave
* Start Frequency: 20.000 Hz
*
* Freq(Hz)	SPL(dB)	Phase(degrees)
20.000000	89.789	-149.8293
20.299999	89.804	-150.4770
20.600000	89.814	-151.1167
20.900000	89.820	-151.7274
21.200001	89.824	-152.2883
21.400000	89.827	-152.6322
21.799999	89.841	-153.2701
22.000000	89.852	-153.5815
22.400000	89.881	-154.2329
22.700001	89.904	-154.7664
23.000000	89.920	-155.3325
23.299999	89.928	-155.8980
23.600000	89.928	-156.4292
24.000000	89.920	-157.0464
24.299999	89.917	-157.4423
24.700001	89.920	-157.9236
25.000000	89.928	-158.2903
25.400000	89.940	-158.8185
25.799999	89.946	-159.3773
26.200001	89.942	-159.9166
26.500000	89.935	-160.2840
26.900000	89.927	-160.7220
27.200001	89.925	-161.0282
27.600000	89.926	-161.4332
28.000000	89.929	-161.8494
28.500000	89.933	-162.3756
29.000000	89.940	-162.8997
29.500000	89.951	-163.4493
30.000000	89.960	-164.0536
30.400000	89.960	-164.5576
30.700001	89.954	-164.9228
31.100000	89.943	-165.3636
31.500000	89.933	-165.7471
32.000000	89.930	-166.1829
32.500000	89.934	-166.6297
33.000000	89.940	-167.1109
33.500000	89.942	-167.6021
34.000000	89.940	-168.0769
34.500000	89.937	-168.5363
35.000000	89.933	-168.9875
35.500000	89.924	-169.4186
36.000000	89.913	-169.8087
36.500000	89.905	-170.1612
37.000000	89.901	-170.5083
37.500000	89.898	-170.8768
38.200001	89.888	-171.4118
38.700001	89.877	-171.7732
39.500000	89.861	-172.3134
40.000000	89.852	-172.6544
40.599998	89.841	-173.0697
41.200001	89.829	-173.4746
41.799999	89.818	-173.8757
42.500000	89.805	-174.3565
43.099998	89.790	-174.7609
43.700001	89.774	-175.1343
44.400002	89.757	-175.5355
45.000000	89.745	-175.8601
45.500000	89.737	-176.1190
46.200001	89.730	-176.4891
46.799999	89.723	-176.8449
47.500000	89.705	-177.2834
48.200001	89.677	-177.6794
48.700001	89.656	-177.9284
49.400002	89.627	-178.2554
50.000000	89.603	-178.5203
50.799999	89.577	-178.8705
51.500000	89.555	-179.2339
52.200001	89.519	-179.6086
53.000000	89.467	-179.8731
53.799999	89.437	-179.9895
54.500000	89.426	179.8705
55.200001	89.413	179.7241
56.000000	89.406	179.6481
57.000000	89.429	179.4536
58.000000	89.437	179.0202
59.000000	89.421	178.6338
60.000000	89.412	178.2410
60.799999	89.400	177.8572
61.500000	89.383	177.5156
62.200001	89.363	177.1946
63.000000	89.342	176.8518
64.000000	89.319	176.4330
65.000000	89.295	176.0097
66.000000	89.265	175.6092
67.000000	89.232	175.2546
68.000000	89.198	174.9305
69.000000	89.164	174.6055
70.000000	89.128	174.2710
71.000000	89.089	173.9377
72.000000	89.051	173.6116
73.000000	89.014	173.2884
74.000000	88.975	172.9729
75.000000	88.934	172.6865
76.199997	88.884	172.3873
77.500000	88.826	172.1199
78.800003	88.770	171.8826
80.000000	88.715	171.6491
81.199997	88.655	171.4242
82.500000	88.586	171.2140
83.800003	88.522	171.0779
85.000000	88.474	170.9714
86.199997	88.432	170.8412
87.500000	88.387	170.7229
88.500000	88.359	170.6415
90.000000	88.318	170.4377
91.199997	88.274	170.2283
92.500000	88.216	169.9913
93.800003	88.142	169.7582
95.000000	88.061	169.5987
96.199997	87.973	169.5142
97.500000	87.868	169.5257
98.800003	87.756	169.7354
100.000000	87.657	170.1548
101.500000	87.564	171.0173
103.000000	87.542	172.1797
104.400002	87.613	173.2241
106.000000	87.773	173.9735
107.500000	87.948	174.0957
109.000000	88.098	173.7188
110.599998	88.203	173.0211
112.000000	88.248	172.3279
113.800003	88.255	171.4962
115.000000	88.240	171.0082
117.199997	88.188	170.2172
118.000000	88.165	169.9623
120.599998	88.084	169.2503
122.000000	88.041	168.9210
124.099998	87.975	168.5126
125.000000	87.946	168.3702
126.500000	87.898	168.1678
128.000000	87.848	168.0034
131.500000	87.737	167.7651
132.000000	87.724	167.7432
134.000000	87.677	167.6530
136.000000	87.639	167.5183
138.000000	87.597	167.3318
140.000000	87.548	167.1367
143.000000	87.466	166.8925
145.000000	87.408	166.7754
147.500000	87.331	166.7058
150.000000	87.255	166.7466
152.500000	87.194	166.8924
155.000000	87.160	167.0378
157.500000	87.146	167.0418
160.000000	87.129	166.9156
162.500000	87.099	166.7369
165.000000	87.059	166.5513
167.500000	87.014	166.3819
170.000000	86.964	166.2471
172.500000	86.911	166.1532
175.000000	86.856	166.0878
177.500000	86.801	166.0342
180.000000	86.747	165.9908
182.500000	86.695	165.9628
185.000000	86.644	165.9512
187.500000	86.593	165.9504
190.000000	86.544	165.9536
192.500000	86.495	165.9615
195.000000	86.448	165.9786
197.500000	86.402	166.0056
200.000000	86.355	166.0393
203.000000	86.300	166.0842
206.000000	86.245	166.1330
209.000000	86.193	166.1859
212.000000	86.142	166.2429
214.000000	86.108	166.2830
218.000000	86.043	166.3699
220.000000	86.011	166.4190
224.000000	85.948	166.5291
227.000000	85.902	166.6189
230.000000	85.856	166.7137
233.000000	85.812	166.8137
236.000000	85.768	166.9205
240.000000	85.710	167.0723
243.000000	85.666	167.1888
247.000000	85.611	167.3428
250.000000	85.570	167.4588
254.000000	85.518	167.6188
258.000000	85.467	167.7910
262.000000	85.417	167.9744
265.000000	85.380	168.1158
269.000000	85.331	168.3067
272.000000	85.295	168.4522
276.000000	85.248	168.6478
280.000000	85.201	168.8440
285.000000	85.145	169.0885
290.000000	85.091	169.3354
295.000000	85.039	169.5837
300.000000	84.988	169.8353
304.000000	84.948	170.0436
307.000000	84.919	170.2019
311.000000	84.881	170.4129
315.000000	84.844	170.6241
320.000000	84.799	170.8914
325.000000	84.756	171.1638
330.000000	84.714	171.4384
335.000000	84.672	171.7127
340.000000	84.633	171.9873
345.000000	84.594	172.2646
350.000000	84.556	172.5464
355.000000	84.519	172.8297
360.000000	84.483	173.1097
365.000000	84.449	173.3879
370.000000	84.416	173.6683
375.000000	84.384	173.9542
382.000000	84.339	174.3630
387.000000	84.308	174.6594
395.000000	84.260	175.1367
400.000000	84.230	175.4324
406.000000	84.196	175.7806
412.000000	84.163	176.1218
418.000000	84.132	176.4614
425.000000	84.098	176.8625
431.000000	84.071	177.2109
437.000000	84.044	177.5610
444.000000	84.013	177.9695
450.000000	83.988	178.3213
455.000000	83.967	178.6183
462.000000	83.940	179.0390
468.000000	83.916	179.4005
475.000000	83.889	179.8185
482.000000	83.863	-179.7670
487.000000	83.846	-179.4719
494.000000	83.823	-179.0585
500.000000	83.804	-178.7029
508.000000	83.780	-178.2268
515.000000	83.760	-177.8110
522.000000	83.741	-177.3948
530.000000	83.719	-176.9140
538.000000	83.698	-176.4275
545.000000	83.680	-175.9989
552.000000	83.663	-175.5699
560.000000	83.645	-175.0812
570.000000	83.623	-174.4698
580.000000	83.604	-173.8511
590.000000	83.585	-173.2161
600.000000	83.569	-172.5578
608.000000	83.557	-172.0126
615.000000	83.549	-171.5211
622.000000	83.546	-171.0170
630.000000	83.548	-170.4375
640.000000	83.560	-169.7479
650.000000	83.577	-169.1360
660.000000	83.590	-168.5875
670.000000	83.598	-168.0571
680.000000	83.603	-167.5140
690.000000	83.608	-166.9477
700.000000	83.613	-166.3606
710.000000	83.620	-165.7584
720.000000	83.628	-165.1474
730.000000	83.637	-164.5324
740.000000	83.649	-163.9138
750.000000	83.663	-163.2909
762.000000	83.682	-162.5385
775.000000	83.708	-161.7227
788.000000	83.739	-160.9092
800.000000	83.771	-160.1578
812.000000	83.808	-159.4026
825.000000	83.853	-158.5854
838.000000	83.904	-157.7791
850.000000	83.955	-157.0519
862.000000	84.009	-156.3418
875.000000	84.070	-155.5853
885.000000	84.120	-155.0111
900.000000	84.198	-154.1650
912.000000	84.265	-153.5040
925.000000	84.341	-152.8058
938.000000	84.420	-152.1261
950.000000	84.497	-151.5164
962.000000	84.576	-150.9275
975.000000	84.664	-150.3149
988.000000	84.756	-149.7291
1000.000000	84.843	-149.2118
1015.000000	84.955	-148.5979
1030.000000	85.069	-148.0267
1044.000000	85.179	-147.5331
1060.000000	85.304	-147.0122
1075.000000	85.421	-146.5631
1090.000000	85.538	-146.1473
1106.000000	85.661	-145.7404
1120.000000	85.767	-145.4157
1138.000000	85.903	-145.0379
1150.000000	85.992	-144.8088
1172.000000	86.152	-144.4252
1180.000000	86.210	-144.2959
1206.000000	86.398	-143.9248
1220.000000	86.497	-143.7608
1241.000000	86.643	-143.5428
1250.000000	86.704	-143.4496
1265.000000	86.807	-143.2900
1280.000000	86.913	-143.1410
1315.000000	87.165	-143.0060
1320.000000	87.198	-143.0164
1340.000000	87.319	-143.0936
1360.000000	87.420	-143.1606
1380.000000	87.509	-143.1605
1400.000000	87.595	-143.0830
1430.000000	87.729	-142.8709
1450.000000	87.823	-142.7056
1475.000000	87.940	-142.4758
1500.000000	88.060	-142.1922
1525.000000	88.194	-141.8636
1550.000000	88.349	-141.5440
1575.000000	88.524	-141.3036
1600.000000	88.709	-141.2004
1625.000000	88.894	-141.2548
1650.000000	89.069	-141.4464
1675.000000	89.227	-141.7272
1700.000000	89.370	-142.0424
1725.000000	89.499	-142.3485
1750.000000	89.621	-142.6253
1775.000000	89.740	-142.8745
1800.000000	89.859	-143.1101
1825.000000	89.978	-143.3491
1850.000000	90.097	-143.5989
1875.000000	90.215	-143.8615
1900.000000	90.331	-144.1372
1925.000000	90.444	-144.4223
1950.000000	90.554	-144.7077
1975.000000	90.662	-144.9871
2000.000000	90.771	-145.2570
2030.000000	90.904	-145.5680
2060.000000	91.045	-145.8813
2090.000000	91.194	-146.2355
2120.000000	91.348	-146.6650
2140.000000	91.452	-147.0023
2180.000000	91.655	-147.8026
2200.000000	91.753	-148.2596
2240.000000	91.935	-149.2656
2270.000000	92.060	-150.0834
2300.000000	92.174	-150.9386
2330.000000	92.277	-151.8140
2360.000000	92.370	-152.6957
2400.000000	92.483	-153.8665
2430.000000	92.560	-154.7381
2470.000000	92.654	-155.8995
2500.000000	92.719	-156.7811
2540.000000	92.794	-157.9794
2580.000000	92.856	-159.1866
2620.000000	92.903	-160.3833
2650.000000	92.931	-161.2695
2690.000000	92.959	-162.4274
2720.000000	92.974	-163.2718
2760.000000	92.992	-164.3663
2800.000000	93.008	-165.4429
2850.000000	93.025	-166.8198
2900.000000	93.025	-168.2677
2950.000000	92.998	-169.7343
3000.000000	92.943	-171.1447
3040.000000	92.884	-172.2008
3070.000000	92.834	-172.9453
3110.000000	92.761	-173.8771
3150.000000	92.681	-174.7418
3200.000000	92.574	-175.7286
3250.000000	92.459	-176.6155
3300.000000	92.341	-177.4055
3350.000000	92.221	-178.1021
3400.000000	92.099	-178.7090
3450.000000	91.976	-179.2287
3500.000000	91.854	-179.6628
3550.000000	91.735	179.9846
3600.000000	91.621	179.7064
3650.000000	91.513	179.4900
3700.000000	91.413	179.3186
3750.000000	91.320	179.1780
3820.000000	91.196	179.0156
3870.000000	91.112	178.9199
3950.000000	90.984	178.7875
4000.000000	90.908	178.7159
4060.000000	90.819	178.6432
4120.000000	90.730	178.5838
4180.000000	90.643	178.5421
4250.000000	90.540	178.5223
4310.000000	90.453	178.5434
4370.000000	90.368	178.6124
4440.000000	90.276	178.7352
4500.000000	90.204	178.8427
4550.000000	90.145	178.9305
4620.000000	90.064	179.0647
4680.000000	89.999	179.1929
4750.000000	89.927	179.3553
4820.000000	89.859	179.5248
4870.000000	89.813	179.6473
4940.000000	89.751	179.8193
5000.000000	89.700	179.9644
5080.000000	89.636	-179.8458
5150.000000	89.582	-179.6794
5220.000000	89.531	-179.5080
5300.000000	89.474	-179.2987
5380.000000	89.419	-179.0723
5450.000000	89.372	-178.8542
5520.000000	89.326	-178.6164
5600.000000	89.277	-178.3216
5700.000000	89.221	-177.9104
5800.000000	89.173	-177.4506
5900.000000	89.134	-176.9403
6000.000000	89.108	-176.3879
6080.000000	89.098	-175.9184
6150.000000	89.097	-175.4895
6220.000000	89.105	-175.0467
6300.000000	89.123	-174.5259
6400.000000	89.165	-173.8650
6500.000000	89.231	-173.2136
6600.000000	89.323	-172.5948
6700.000000	89.443	-172.0390
6800.000000	89.594	-171.5767
6900.000000	89.778	-171.2439
7000.000000	89.994	-171.0788
7100.000000	90.244	-171.1221
7200.000000	90.527	-171.4257
7300.000000	90.838	-172.0546
7400.000000	91.173	-173.0697
7500.000000	91.525	-174.5154
7620.000000	91.967	-176.9048
7750.000000	92.463	179.4763
7880.000000	92.940	174.3581
8000.000000	93.271	167.8919
8120.000000	93.352	159.7949
8250.000000	93.011	150.2308
8380.000000	92.205	141.6391
8500.000000	91.162	135.7373
8620.000000	89.989	132.0038
8750.000000	88.709	130.0168
8850.000000	87.774	129.5846
9000.000000	86.486	130.1900
9120.000000	85.560	131.4359
9250.000000	84.655	133.3115
9380.000000	83.839	135.5803
9500.000000	83.158	137.9272
9620.000000	82.539	140.4533
9750.000000	81.933	143.3398
9880.000000	81.386	146.3381
10000.000000	80.929	149.1732
10150.000000	80.417	152.7719
10300.000000	79.964	156.3993
10440.000000	79.591	159.7888
10600.000000	79.219	163.6488
10750.000000	78.918	167.2434
10900.000000	78.661	170.8039
11060.000000	78.433	174.5425
11200.000000	78.272	177.7394
11380.000000	78.112	-178.2706
11500.000000	78.033	-175.6879
11720.000000	77.947	-171.1521
11800.000000	77.934	-169.5800
12060.000000	77.954	-164.8144
12200.000000	78.000	-162.4925
12410.000000	78.107	-159.3635
12500.000000	78.163	-158.1553
12650.000000	78.267	-156.3152
12800.000000	78.377	-154.6809
13150.000000	78.639	-151.5483
13200.000000	78.677	-151.1637
13400.000000	78.831	-149.7454
13600.000000	79.000	-148.4942
13800.000000	79.199	-147.4137
14000.000000	79.438	-146.5510
14300.000000	79.903	-145.8201
14500.000000	80.304	-145.9138
14750.000000	80.911	-147.1486
15000.000000	81.603	-150.2356
15250.000000	82.281	-155.9603
15500.000000	82.742	-164.9784
15750.000000	82.693	-176.8923
16000.000000	81.907	170.6643
16250.000000	80.413	161.0441
16500.000000	78.531	155.9594
16750.000000	76.715	154.0901
17000.000000	75.244	151.2116
17250.000000	73.555	146.5944
17500.000000	70.628	157.3961
17750.000000	68.624	176.3488
18000.000000	68.317	-176.8777
18250.000000	67.827	-174.5284
18500.000000	67.036	-171.7625
18750.000000	66.122	-168.1635
19000.000000	65.164	-163.9325
19250.000000	64.179	-159.2621
19500.000000	63.149	-154.3723
19750.000000	62.120	-149.8425
