* Measurement data measured by REW V5.20.13
* Source: EXCL: Headset (KM-HIFI-384KHZ), MICROPHONE (Master Volume), 0, volume: 1.000
* Format: 256k Log Swept Sine, 1 sweep at -13.0 dBFS with no timing reference
* Dated: Aug 12, 2023 12:20:32 PM
* REW Settings:
*  C-weighting compensation: Off
*  Target level: 75.0 dB
* Note: 
* Measurement: Aug 12
* Smoothing: 1/24 octave
* Frequency Step: 1/48 octave
* Start Frequency: 20.000 Hz
*
* Freq(Hz)	SPL(dB)	Phase(degrees)
20.000000	94.604	-159.2923
20.299999	94.571	-160.1020
20.600000	94.539	-160.7961
20.900000	94.517	-161.3959
21.200001	94.509	-161.9536
21.400000	94.513	-162.3415
21.799999	94.532	-163.2156
22.000000	94.542	-163.7224
22.400000	94.550	-164.8763
22.700001	94.535	-165.8117
23.000000	94.497	-166.7268
23.299999	94.440	-167.5445
23.600000	94.374	-168.2196
24.000000	94.290	-168.8862
24.299999	94.245	-169.2679
24.700001	94.215	-169.7504
25.000000	94.209	-170.1813
25.400000	94.206	-170.8966
25.799999	94.190	-171.7128
26.200001	94.157	-172.5049
26.500000	94.129	-173.0326
26.900000	94.098	-173.6614
27.200001	94.086	-174.1342
27.600000	94.077	-174.8507
28.000000	94.061	-175.6956
28.500000	94.005	-176.8140
29.000000	93.913	-177.7726
29.500000	93.812	-178.4701
30.000000	93.725	-178.9948
30.400000	93.667	-179.3744
30.700001	93.628	-179.6500
31.100000	93.579	-179.9999
31.500000	93.539	179.6606
32.000000	93.500	179.1867
32.500000	93.463	178.5897
33.000000	93.406	177.9191
33.500000	93.327	177.3233
34.000000	93.244	176.9003
34.500000	93.179	176.5940
35.000000	93.134	176.2830
35.500000	93.099	175.8976
36.000000	93.063	175.4481
36.500000	93.023	174.9592
37.000000	92.975	174.4493
37.500000	92.914	173.9576
38.200001	92.815	173.4107
38.700001	92.748	173.1356
39.500000	92.660	172.7322
40.000000	92.608	172.4472
40.599998	92.539	172.1115
41.200001	92.471	171.8198
41.799999	92.407	171.5413
42.500000	92.336	171.1883
43.099998	92.273	170.8745
43.700001	92.208	170.5708
44.400002	92.129	170.2547
45.000000	92.064	170.0555
45.500000	92.018	169.9385
46.200001	91.973	169.7515
46.799999	91.939	169.4850
47.500000	91.882	169.1213
48.200001	91.810	168.8560
48.700001	91.760	168.7302
49.400002	91.692	168.5727
50.000000	91.628	168.4709
50.799999	91.549	168.4497
51.500000	91.498	168.4340
52.200001	91.452	168.2982
53.000000	91.382	168.0837
53.799999	91.304	167.9496
54.500000	91.244	167.8776
55.200001	91.188	167.8001
56.000000	91.126	167.7183
57.000000	91.054	167.6924
58.000000	90.997	167.6714
59.000000	90.933	167.5872
60.000000	90.854	167.6363
60.799999	90.803	167.7513
61.500000	90.767	167.8134
62.200001	90.732	167.8251
63.000000	90.688	167.8007
64.000000	90.627	167.7556
65.000000	90.568	167.7266
66.000000	90.512	167.6954
67.000000	90.457	167.6641
68.000000	90.402	167.6564
69.000000	90.346	167.6932
70.000000	90.294	167.7721
71.000000	90.248	167.8578
72.000000	90.203	167.9332
73.000000	90.159	168.0058
74.000000	90.118	168.0696
75.000000	90.078	168.1340
76.199997	90.035	168.2191
77.500000	89.989	168.3112
78.800003	89.945	168.4244
80.000000	89.904	168.5356
81.199997	89.864	168.6569
82.500000	89.820	168.7979
83.800003	89.780	168.9654
85.000000	89.752	169.0980
86.199997	89.721	169.1496
87.500000	89.675	169.2320
88.500000	89.643	169.3524
90.000000	89.603	169.5193
91.199997	89.575	169.6339
92.500000	89.545	169.7405
93.800003	89.512	169.8646
95.000000	89.486	170.0063
96.199997	89.464	170.1436
97.500000	89.440	170.2896
98.800003	89.418	170.4348
100.000000	89.399	170.5537
101.500000	89.372	170.6860
103.000000	89.343	170.8084
104.400002	89.319	170.9269
106.000000	89.296	171.0543
107.500000	89.275	171.1674
109.000000	89.254	171.3117
110.599998	89.233	171.4928
112.000000	89.215	171.6339
113.800003	89.189	171.7647
115.000000	89.171	171.8411
117.199997	89.150	171.9774
118.000000	89.147	172.0157
120.599998	89.130	172.1164
122.000000	89.111	172.2505
124.099998	89.087	172.5052
125.000000	89.076	172.6050
126.500000	89.058	172.7555
128.000000	89.041	172.8917
131.500000	89.011	173.1525
132.000000	89.006	173.1875
134.000000	88.990	173.3259
136.000000	88.977	173.4478
138.000000	88.965	173.5657
140.000000	88.955	173.6980
143.000000	88.938	173.8914
145.000000	88.922	174.0215
147.500000	88.905	174.1931
150.000000	88.895	174.3625
152.500000	88.885	174.5281
155.000000	88.868	174.6809
157.500000	88.850	174.8346
160.000000	88.839	174.9498
162.500000	88.828	175.0596
165.000000	88.816	175.1877
167.500000	88.804	175.3249
170.000000	88.791	175.4603
172.500000	88.780	175.5971
175.000000	88.771	175.7195
177.500000	88.761	175.8203
180.000000	88.751	175.9307
182.500000	88.744	176.0532
185.000000	88.737	176.1700
187.500000	88.730	176.2723
190.000000	88.721	176.3710
192.500000	88.710	176.4908
195.000000	88.702	176.6167
197.500000	88.694	176.7294
200.000000	88.686	176.8341
203.000000	88.677	176.9496
206.000000	88.668	177.0510
209.000000	88.658	177.1402
212.000000	88.647	177.2481
214.000000	88.639	177.3413
218.000000	88.623	177.5250
220.000000	88.615	177.6053
224.000000	88.600	177.7666
227.000000	88.592	177.8820
230.000000	88.584	177.9873
233.000000	88.576	178.0934
236.000000	88.565	178.2118
240.000000	88.549	178.3682
243.000000	88.539	178.4700
247.000000	88.525	178.6058
250.000000	88.513	178.7102
254.000000	88.497	178.8492
258.000000	88.482	178.9916
262.000000	88.465	179.1323
265.000000	88.450	179.2393
269.000000	88.431	179.3856
272.000000	88.415	179.5031
276.000000	88.393	179.6704
280.000000	88.368	179.8416
285.000000	88.331	-179.9290
290.000000	88.289	-179.6390
295.000000	88.245	-179.2597
300.000000	88.204	-178.7661
304.000000	88.176	-178.2572
307.000000	88.161	-177.8015
311.000000	88.164	-177.1169
315.000000	88.202	-176.4376
320.000000	88.297	-175.7963
325.000000	88.412	-175.5589
330.000000	88.505	-175.6563
335.000000	88.561	-175.9041
340.000000	88.583	-176.1371
345.000000	88.585	-176.3178
350.000000	88.576	-176.4544
355.000000	88.558	-176.5309
360.000000	88.533	-176.5480
365.000000	88.504	-176.5089
370.000000	88.470	-176.4042
375.000000	88.438	-176.2084
382.000000	88.412	-175.8187
387.000000	88.410	-175.5503
395.000000	88.416	-175.2070
400.000000	88.420	-175.0347
406.000000	88.421	-174.8585
412.000000	88.421	-174.7007
418.000000	88.420	-174.5410
425.000000	88.416	-174.3516
431.000000	88.411	-174.1907
437.000000	88.405	-174.0255
444.000000	88.397	-173.8368
450.000000	88.389	-173.6705
455.000000	88.380	-173.5233
462.000000	88.367	-173.3088
468.000000	88.356	-173.1064
475.000000	88.343	-172.8394
482.000000	88.333	-172.5575
487.000000	88.328	-172.3555
494.000000	88.325	-172.0837
500.000000	88.322	-171.8615
508.000000	88.319	-171.5696
515.000000	88.315	-171.3154
522.000000	88.311	-171.0624
530.000000	88.307	-170.7644
538.000000	88.304	-170.4598
545.000000	88.301	-170.2061
552.000000	88.296	-169.9511
560.000000	88.292	-169.6500
570.000000	88.287	-169.2638
580.000000	88.280	-168.8622
590.000000	88.277	-168.4479
600.000000	88.276	-168.0335
608.000000	88.276	-167.7068
615.000000	88.276	-167.3994
622.000000	88.276	-167.0722
630.000000	88.277	-166.6980
640.000000	88.280	-166.2501
650.000000	88.286	-165.8096
660.000000	88.292	-165.3566
670.000000	88.299	-164.9018
680.000000	88.308	-164.4460
690.000000	88.318	-163.9902
700.000000	88.329	-163.5387
710.000000	88.341	-163.0845
720.000000	88.353	-162.6131
730.000000	88.366	-162.1286
740.000000	88.381	-161.6368
750.000000	88.398	-161.1391
762.000000	88.422	-160.5373
775.000000	88.451	-159.8846
788.000000	88.483	-159.2257
800.000000	88.517	-158.6097
812.000000	88.556	-157.9930
825.000000	88.601	-157.3253
838.000000	88.650	-156.6535
850.000000	88.700	-156.0410
862.000000	88.752	-155.4377
875.000000	88.813	-154.7929
885.000000	88.863	-154.3012
900.000000	88.943	-153.5781
912.000000	89.011	-153.0213
925.000000	89.089	-152.4371
938.000000	89.170	-151.8698
950.000000	89.247	-151.3639
962.000000	89.328	-150.8815
975.000000	89.419	-150.3904
988.000000	89.511	-149.9292
1000.000000	89.598	-149.5243
1015.000000	89.709	-149.0512
1030.000000	89.821	-148.6184
1044.000000	89.926	-148.2507
1060.000000	90.047	-147.8716
1075.000000	90.159	-147.5471
1090.000000	90.270	-147.2488
1106.000000	90.386	-146.9671
1120.000000	90.487	-146.7425
1138.000000	90.616	-146.4736
1150.000000	90.702	-146.3116
1172.000000	90.858	-146.0424
1180.000000	90.914	-145.9526
1206.000000	91.099	-145.6926
1220.000000	91.199	-145.5798
1241.000000	91.349	-145.4610
1250.000000	91.412	-145.4317
1265.000000	91.518	-145.4113
1280.000000	91.620	-145.4239
1315.000000	91.847	-145.5626
1320.000000	91.877	-145.5914
1340.000000	91.994	-145.7198
1360.000000	92.102	-145.8612
1380.000000	92.202	-146.0059
1400.000000	92.296	-146.1494
1430.000000	92.428	-146.3481
1450.000000	92.512	-146.4655
1475.000000	92.612	-146.5891
1500.000000	92.708	-146.6898
1525.000000	92.801	-146.7740
1550.000000	92.893	-146.8390
1575.000000	92.985	-146.8893
1600.000000	93.076	-146.9278
1625.000000	93.166	-146.9570
1650.000000	93.258	-146.9804
1675.000000	93.350	-146.9981
1700.000000	93.443	-147.0143
1725.000000	93.537	-147.0305
1750.000000	93.632	-147.0474
1775.000000	93.728	-147.0686
1800.000000	93.825	-147.0974
1825.000000	93.924	-147.1358
1850.000000	94.023	-147.1846
1875.000000	94.124	-147.2455
1900.000000	94.225	-147.3203
1925.000000	94.327	-147.4080
1950.000000	94.429	-147.5076
1975.000000	94.532	-147.6230
2000.000000	94.635	-147.7567
2030.000000	94.759	-147.9407
2060.000000	94.884	-148.1515
2090.000000	95.008	-148.3908
2120.000000	95.131	-148.6607
2140.000000	95.213	-148.8583
2180.000000	95.375	-149.2962
2200.000000	95.455	-149.5365
2240.000000	95.610	-150.0592
2270.000000	95.724	-150.4886
2300.000000	95.834	-150.9518
2330.000000	95.941	-151.4474
2360.000000	96.044	-151.9721
2400.000000	96.175	-152.7155
2430.000000	96.267	-153.3055
2470.000000	96.382	-154.1301
2500.000000	96.461	-154.7738
2540.000000	96.558	-155.6646
2580.000000	96.643	-156.5844
2620.000000	96.716	-157.5243
2650.000000	96.764	-158.2399
2690.000000	96.817	-159.2013
2720.000000	96.850	-159.9242
2760.000000	96.882	-160.8850
2800.000000	96.902	-161.8345
2850.000000	96.910	-162.9960
2900.000000	96.902	-164.1198
2950.000000	96.878	-165.1944
3000.000000	96.842	-166.2099
3040.000000	96.805	-166.9763
3070.000000	96.773	-167.5212
3110.000000	96.725	-168.2061
3150.000000	96.672	-168.8446
3200.000000	96.600	-169.5779
3250.000000	96.523	-170.2376
3300.000000	96.443	-170.8259
3350.000000	96.362	-171.3466
3400.000000	96.280	-171.8060
3450.000000	96.200	-172.2100
3500.000000	96.122	-172.5639
3550.000000	96.046	-172.8760
3600.000000	95.974	-173.1532
3650.000000	95.903	-173.4015
3700.000000	95.836	-173.6285
3750.000000	95.771	-173.8396
3820.000000	95.684	-174.1198
3870.000000	95.623	-174.3142
3950.000000	95.528	-174.6167
4000.000000	95.467	-174.7992
4060.000000	95.394	-175.0105
4120.000000	95.320	-175.2100
4180.000000	95.246	-175.3941
4250.000000	95.158	-175.5838
4310.000000	95.084	-175.7228
4370.000000	95.012	-175.8411
4440.000000	94.930	-175.9551
4500.000000	94.863	-176.0354
4550.000000	94.811	-176.0950
4620.000000	94.743	-176.1772
4680.000000	94.690	-176.2590
4750.000000	94.633	-176.3835
4820.000000	94.581	-176.5498
4870.000000	94.545	-176.6954
4940.000000	94.496	-176.9368
5000.000000	94.454	-177.1794
5080.000000	94.395	-177.5544
5150.000000	94.339	-177.9305
5220.000000	94.278	-178.3468
5300.000000	94.199	-178.8609
5380.000000	94.106	-179.3922
5450.000000	94.011	-179.8375
5520.000000	93.903	179.7771
5600.000000	93.770	179.4612
5700.000000	93.602	179.2907
5800.000000	93.453	179.3154
5900.000000	93.331	179.4156
6000.000000	93.230	179.5079
6080.000000	93.157	179.5644
6150.000000	93.097	179.6059
6220.000000	93.039	179.6458
6300.000000	92.975	179.6949
6400.000000	92.902	179.7670
6500.000000	92.836	179.8525
6600.000000	92.778	179.9486
6700.000000	92.728	-179.9505
6800.000000	92.686	-179.8550
6900.000000	92.654	-179.7747
7000.000000	92.631	-179.7152
7100.000000	92.620	-179.6896
7200.000000	92.619	-179.7275
7300.000000	92.626	-179.8660
7400.000000	92.633	179.8800
7500.000000	92.634	179.5172
7620.000000	92.625	178.9539
7750.000000	92.596	178.1929
7880.000000	92.543	177.2818
8000.000000	92.465	176.3246
8120.000000	92.353	175.2810
8250.000000	92.187	174.0988
8380.000000	91.972	172.9323
8500.000000	91.731	171.9373
8620.000000	91.450	171.0787
8750.000000	91.110	170.3573
8850.000000	90.828	169.9741
9000.000000	90.380	169.7051
9120.000000	90.005	169.7774
9250.000000	89.592	170.1861
9380.000000	89.193	170.9483
9500.000000	88.855	171.8788
9620.000000	88.552	172.9039
9750.000000	88.262	174.0341
9880.000000	88.007	175.1391
10000.000000	87.803	176.0980
10150.000000	87.592	177.1398
10300.000000	87.427	177.9037
10440.000000	87.308	178.2682
10600.000000	87.196	178.1746
10750.000000	87.093	177.5331
10900.000000	86.965	176.3498
11060.000000	86.772	174.5750
11200.000000	86.531	172.7351
11380.000000	86.106	170.2828
11500.000000	85.750	168.7975
11720.000000	84.980	166.8313
11800.000000	84.677	166.4327
12060.000000	83.690	166.3766
12200.000000	83.192	167.0240
12410.000000	82.497	168.6647
12500.000000	82.216	169.6782
12650.000000	81.802	171.8294
12800.000000	81.495	174.2156
13150.000000	81.003	179.0721
13200.000000	80.935	179.6999
13400.000000	80.641	-177.7107
13600.000000	80.329	-174.7342
13800.000000	80.048	-171.2551
14000.000000	79.843	-167.4480
14300.000000	79.721	-161.7752
14500.000000	79.756	-158.4338
14750.000000	79.906	-155.1249
15000.000000	80.162	-153.1194
15250.000000	80.533	-152.9242
15500.000000	81.022	-155.4164
15750.000000	81.554	-162.0527
16000.000000	81.846	-174.4759
16250.000000	81.424	167.6417
16500.000000	79.949	148.6338
16750.000000	77.542	133.8157
17000.000000	74.708	125.0048
17250.000000	71.986	121.1161
17500.000000	69.690	120.6548
17750.000000	67.885	122.5969
18000.000000	66.499	126.2452
18250.000000	65.400	131.0906
18500.000000	64.425	136.8498
18750.000000	63.419	143.6661
19000.000000	62.269	152.2008
19250.000000	60.947	163.4196
19500.000000	59.544	177.6913
19750.000000	58.282	-167.0475
