* Measurement data measured by REW V5.20.13
* Source: EXCL: Headset (KM-HIFI-384KHZ), MICROPHONE (Master Volume), 0, volume: 0.250
* Format: 256k Log Swept Sine, 1 sweep at -13.0 dBFS with no timing reference
* Dated: Sep 9, 2023 6:35:54 PM
* REW Settings:
*  C-weighting compensation: Off
*  Target level: 75.0 dB
* Note: ; 
* Measurement: Olina SE L
* Smoothing: 1/24 octave
* Frequency Step: 1/48 octave
* Start Frequency: 20.000 Hz
*
* Freq(Hz)	SPL(dB)	Phase(degrees)
20.000000	100.573	-143.2991
20.299999	100.598	-144.1505
20.600000	100.616	-144.9790
20.900000	100.630	-145.7741
21.200001	100.641	-146.5292
21.400000	100.648	-147.0106
21.799999	100.661	-147.9282
22.000000	100.668	-148.3695
22.400000	100.685	-149.2301
22.700001	100.698	-149.8645
23.000000	100.710	-150.4936
23.299999	100.722	-151.1163
23.600000	100.732	-151.7297
24.000000	100.744	-152.5269
24.299999	100.752	-153.1064
24.700001	100.762	-153.8560
25.000000	100.771	-154.4064
25.400000	100.782	-155.1342
25.799999	100.792	-155.8618
26.200001	100.798	-156.5839
26.500000	100.800	-157.1110
26.900000	100.800	-157.7812
27.200001	100.799	-158.2557
27.600000	100.800	-158.8596
28.000000	100.805	-159.4535
28.500000	100.813	-160.2116
29.000000	100.816	-160.9815
29.500000	100.813	-161.7241
30.000000	100.810	-162.4178
30.400000	100.810	-162.9543
30.700001	100.812	-163.3606
31.100000	100.815	-163.9173
31.500000	100.814	-164.4840
32.000000	100.809	-165.1776
32.500000	100.801	-165.8309
33.000000	100.794	-166.4512
33.500000	100.790	-167.0598
34.000000	100.787	-167.6645
34.500000	100.782	-168.2567
35.000000	100.776	-168.8284
35.500000	100.770	-169.3811
36.000000	100.766	-169.9201
36.500000	100.761	-170.4499
37.000000	100.755	-170.9753
37.500000	100.747	-171.4975
38.200001	100.730	-172.2073
38.700001	100.714	-172.6841
39.500000	100.690	-173.4030
40.000000	100.676	-173.8454
40.599998	100.658	-174.3773
41.200001	100.640	-174.9059
41.799999	100.622	-175.4363
42.500000	100.598	-176.0662
43.099998	100.575	-176.6001
43.700001	100.551	-177.1076
44.400002	100.525	-177.6665
45.000000	100.506	-178.1294
45.500000	100.492	-178.5084
46.200001	100.475	-179.0337
46.799999	100.460	-179.4813
47.500000	100.440	-179.9864
48.200001	100.420	179.5372
48.700001	100.407	179.2035
49.400002	100.387	178.7291
50.000000	100.364	178.3265
50.799999	100.329	177.8262
51.500000	100.298	177.4221
52.200001	100.269	177.0323
53.000000	100.238	176.5841
53.799999	100.208	176.1200
54.500000	100.179	175.7188
55.200001	100.153	175.3389
56.000000	100.127	174.9046
57.000000	100.095	174.3348
58.000000	100.056	173.8046
59.000000	100.020	173.3278
60.000000	99.987	172.8494
60.799999	99.957	172.4575
61.500000	99.929	172.1201
62.200001	99.900	171.7935
63.000000	99.868	171.4220
64.000000	99.827	170.9456
65.000000	99.786	170.4689
66.000000	99.744	170.0059
67.000000	99.702	169.5662
68.000000	99.661	169.1580
69.000000	99.622	168.7748
70.000000	99.583	168.4035
71.000000	99.543	168.0356
72.000000	99.500	167.6731
73.000000	99.457	167.3182
74.000000	99.413	166.9679
75.000000	99.370	166.6199
76.199997	99.319	166.2063
77.500000	99.265	165.7743
78.800003	99.210	165.3575
80.000000	99.158	165.0007
81.199997	99.107	164.6590
82.500000	99.050	164.3013
83.800003	98.993	163.9602
85.000000	98.942	163.6434
86.199997	98.889	163.3309
87.500000	98.832	163.0139
88.500000	98.791	162.7741
90.000000	98.728	162.4112
91.199997	98.677	162.1304
92.500000	98.621	161.8411
93.800003	98.565	161.5655
95.000000	98.514	161.3152
96.199997	98.463	161.0621
97.500000	98.405	160.7983
98.800003	98.346	160.5534
100.000000	98.294	160.3320
101.500000	98.228	160.0549
103.000000	98.160	159.7983
104.400002	98.096	159.5885
106.000000	98.023	159.3632
107.500000	97.951	159.1720
109.000000	97.879	159.0241
110.599998	97.804	158.8868
112.000000	97.737	158.7821
113.800003	97.650	158.7045
115.000000	97.594	158.6992
117.199997	97.505	158.7836
118.000000	97.480	158.8368
120.599998	97.427	159.0174
122.000000	97.416	159.0574
124.099998	97.407	158.9451
125.000000	97.399	158.8287
126.500000	97.378	158.5727
128.000000	97.345	158.2853
131.500000	97.239	157.7184
132.000000	97.222	157.6601
134.000000	97.157	157.4817
136.000000	97.099	157.3390
138.000000	97.047	157.1592
140.000000	96.993	156.9412
143.000000	96.904	156.6293
145.000000	96.841	156.4533
147.500000	96.759	156.2634
150.000000	96.677	156.1006
152.500000	96.595	155.9615
155.000000	96.516	155.8372
157.500000	96.437	155.7224
160.000000	96.358	155.6364
162.500000	96.282	155.5711
165.000000	96.207	155.5143
167.500000	96.133	155.4656
170.000000	96.061	155.4284
172.500000	95.989	155.3975
175.000000	95.919	155.3721
177.500000	95.850	155.3564
180.000000	95.783	155.3553
182.500000	95.716	155.3611
185.000000	95.650	155.3713
187.500000	95.584	155.3875
190.000000	95.520	155.4106
192.500000	95.456	155.4396
195.000000	95.392	155.4754
197.500000	95.329	155.5204
200.000000	95.267	155.5770
203.000000	95.193	155.6621
206.000000	95.122	155.7670
209.000000	95.053	155.8913
212.000000	94.988	156.0280
214.000000	94.947	156.1163
218.000000	94.867	156.2650
220.000000	94.827	156.3259
224.000000	94.744	156.4431
227.000000	94.678	156.5580
230.000000	94.610	156.7129
233.000000	94.542	156.9104
236.000000	94.478	157.1583
240.000000	94.405	157.5750
243.000000	94.367	157.9194
247.000000	94.341	158.3205
250.000000	94.334	158.5103
254.000000	94.322	158.5965
258.000000	94.295	158.5679
262.000000	94.251	158.5195
265.000000	94.211	158.5010
269.000000	94.151	158.5107
272.000000	94.105	158.5443
276.000000	94.043	158.6195
280.000000	93.981	158.7203
285.000000	93.905	158.8743
290.000000	93.831	159.0533
295.000000	93.760	159.2491
300.000000	93.692	159.4553
304.000000	93.638	159.6262
307.000000	93.598	159.7579
311.000000	93.547	159.9398
315.000000	93.497	160.1283
320.000000	93.436	160.3682
325.000000	93.377	160.6123
330.000000	93.320	160.8605
335.000000	93.264	161.1117
340.000000	93.210	161.3684
345.000000	93.157	161.6271
350.000000	93.106	161.8855
355.000000	93.056	162.1466
360.000000	93.008	162.4101
365.000000	92.961	162.6742
370.000000	92.916	162.9399
375.000000	92.871	163.2075
382.000000	92.811	163.5837
387.000000	92.770	163.8536
395.000000	92.706	164.2864
400.000000	92.668	164.5566
406.000000	92.623	164.8814
412.000000	92.580	165.2082
418.000000	92.538	165.5363
425.000000	92.491	165.9169
431.000000	92.452	166.2426
437.000000	92.414	166.5680
444.000000	92.372	166.9492
450.000000	92.337	167.2777
455.000000	92.309	167.5507
462.000000	92.270	167.9332
468.000000	92.238	168.2619
475.000000	92.202	168.6442
482.000000	92.168	169.0259
487.000000	92.144	169.2984
494.000000	92.111	169.6808
500.000000	92.084	170.0094
508.000000	92.050	170.4464
515.000000	92.022	170.8284
522.000000	91.994	171.2115
530.000000	91.964	171.6488
538.000000	91.935	172.0853
545.000000	91.911	172.4671
552.000000	91.888	172.8492
560.000000	91.863	173.2875
570.000000	91.834	173.8365
580.000000	91.807	174.3842
590.000000	91.782	174.9330
600.000000	91.759	175.4832
608.000000	91.742	175.9240
615.000000	91.728	176.3104
622.000000	91.715	176.6981
630.000000	91.701	177.1432
640.000000	91.685	177.7007
650.000000	91.672	178.2584
660.000000	91.660	178.8172
670.000000	91.650	179.3786
680.000000	91.642	179.9440
690.000000	91.636	-179.4882
700.000000	91.632	-178.9188
710.000000	91.629	-178.3464
720.000000	91.628	-177.7708
730.000000	91.629	-177.1910
740.000000	91.631	-176.6057
750.000000	91.635	-176.0149
762.000000	91.643	-175.2945
775.000000	91.654	-174.4914
788.000000	91.669	-173.6523
800.000000	91.690	-172.8345
812.000000	91.725	-171.9929
825.000000	91.778	-171.1280
838.000000	91.834	-170.3482
850.000000	91.879	-169.6083
862.000000	91.933	-168.7688
875.000000	92.022	-167.8261
885.000000	92.111	-167.1936
900.000000	92.254	-166.4964
912.000000	92.357	-166.0938
925.000000	92.453	-165.7017
938.000000	92.540	-165.2999
950.000000	92.619	-164.9134
962.000000	92.699	-164.5197
975.000000	92.788	-164.0973
988.000000	92.881	-163.6899
1000.000000	92.969	-163.3323
1015.000000	93.083	-162.9169
1030.000000	93.199	-162.5445
1044.000000	93.310	-162.2378
1060.000000	93.438	-161.9371
1075.000000	93.559	-161.7043
1090.000000	93.679	-161.5183
1106.000000	93.806	-161.3689
1120.000000	93.915	-161.2775
1138.000000	94.051	-161.2104
1150.000000	94.140	-161.1943
1172.000000	94.297	-161.2169
1180.000000	94.353	-161.2398
1206.000000	94.525	-161.3590
1220.000000	94.613	-161.4456
1241.000000	94.739	-161.5985
1250.000000	94.791	-161.6712
1265.000000	94.875	-161.7999
1280.000000	94.956	-161.9355
1315.000000	95.132	-162.2631
1320.000000	95.156	-162.3103
1340.000000	95.249	-162.4981
1360.000000	95.338	-162.6813
1380.000000	95.423	-162.8558
1400.000000	95.507	-163.0175
1430.000000	95.629	-163.2304
1450.000000	95.713	-163.3571
1475.000000	95.820	-163.5193
1500.000000	95.931	-163.7097
1525.000000	96.040	-163.9402
1550.000000	96.144	-164.2014
1575.000000	96.244	-164.4727
1600.000000	96.341	-164.7408
1625.000000	96.435	-165.0023
1650.000000	96.528	-165.2580
1675.000000	96.621	-165.5118
1700.000000	96.714	-165.7661
1725.000000	96.807	-166.0229
1750.000000	96.900	-166.2847
1775.000000	96.994	-166.5523
1800.000000	97.088	-166.8282
1825.000000	97.183	-167.1139
1850.000000	97.278	-167.4104
1875.000000	97.373	-167.7191
1900.000000	97.469	-168.0417
1925.000000	97.565	-168.3781
1950.000000	97.660	-168.7270
1975.000000	97.755	-169.0890
2000.000000	97.850	-169.4663
2030.000000	97.963	-169.9395
2060.000000	98.076	-170.4352
2090.000000	98.188	-170.9541
2120.000000	98.299	-171.4950
2140.000000	98.372	-171.8681
2180.000000	98.516	-172.6456
2200.000000	98.586	-173.0492
2240.000000	98.725	-173.8874
2270.000000	98.826	-174.5423
2300.000000	98.924	-175.2173
2330.000000	99.018	-175.9126
2360.000000	99.110	-176.6265
2400.000000	99.226	-177.6028
2430.000000	99.309	-178.3524
2470.000000	99.413	-179.3691
2500.000000	99.486	179.8599
2540.000000	99.577	178.8234
2580.000000	99.661	177.7867
2620.000000	99.737	176.7593
2650.000000	99.789	176.0018
2690.000000	99.855	175.0222
2720.000000	99.903	174.3163
2760.000000	99.971	173.4111
2800.000000	100.046	172.5181
2850.000000	100.152	171.3340
2900.000000	100.260	169.9999
2950.000000	100.352	168.5392
3000.000000	100.422	167.0377
3040.000000	100.467	165.8468
3070.000000	100.497	164.9623
3110.000000	100.531	163.7884
3150.000000	100.560	162.6152
3200.000000	100.585	161.1559
3250.000000	100.599	159.7250
3300.000000	100.604	158.3370
3350.000000	100.604	156.9959
3400.000000	100.599	155.7039
3450.000000	100.592	154.4652
3500.000000	100.586	153.2806
3550.000000	100.587	152.1330
3600.000000	100.600	150.9795
3650.000000	100.623	149.7501
3700.000000	100.650	148.3719
3750.000000	100.663	146.8204
3820.000000	100.632	144.4617
3870.000000	100.565	142.7849
3950.000000	100.390	140.4066
4000.000000	100.258	139.2198
4060.000000	100.101	138.1226
4120.000000	99.972	137.2893
4180.000000	99.878	136.5659
4250.000000	99.806	135.6933
4310.000000	99.764	134.8544
4370.000000	99.729	133.9236
4440.000000	99.688	132.7405
4500.000000	99.651	131.6628
4550.000000	99.617	130.7287
4620.000000	99.563	129.3733
4680.000000	99.509	128.1720
4750.000000	99.435	126.7388
4820.000000	99.346	125.2959
4870.000000	99.273	124.2757
4940.000000	99.161	122.8825
5000.000000	99.056	121.7299
5080.000000	98.907	120.2522
5150.000000	98.766	119.0148
5220.000000	98.616	117.8437
5300.000000	98.432	116.6202
5380.000000	98.240	115.5559
5450.000000	98.073	114.7666
5520.000000	97.911	114.0965
5600.000000	97.737	113.4439
5700.000000	97.534	112.7579
5800.000000	97.347	112.1989
5900.000000	97.178	111.7470
6000.000000	97.027	111.3875
6080.000000	96.920	111.1621
6150.000000	96.836	111.0061
6220.000000	96.763	110.8837
6300.000000	96.693	110.7794
6400.000000	96.628	110.6945
6500.000000	96.591	110.6453
6600.000000	96.584	110.6065
6700.000000	96.611	110.5474
6800.000000	96.673	110.4308
6900.000000	96.773	110.2188
7000.000000	96.909	109.8708
7100.000000	97.083	109.3399
7200.000000	97.295	108.5640
7300.000000	97.540	107.4586
7400.000000	97.811	105.9388
7500.000000	98.094	103.9377
7620.000000	98.427	100.8245
7750.000000	98.742	96.5092
7880.000000	98.958	91.2359
8000.000000	99.022	85.6928
8120.000000	98.926	79.8079
8250.000000	98.635	73.4548
8380.000000	98.163	67.5138
8500.000000	97.596	62.6407
8620.000000	96.930	58.4853
8750.000000	96.127	54.8987
8850.000000	95.472	52.8308
9000.000000	94.473	50.8346
9120.000000	93.688	50.1026
9250.000000	92.873	50.0505
9380.000000	92.106	50.6469
9500.000000	91.446	51.6779
9620.000000	90.834	53.1004
9750.000000	90.224	55.0281
9880.000000	89.667	57.3213
10000.000000	89.199	59.7480
10150.000000	88.677	63.2102
10300.000000	88.232	67.1882
10440.000000	87.903	71.4271
10600.000000	87.661	76.9856
10750.000000	87.621	82.9113
10900.000000	87.846	89.3584
11060.000000	88.475	96.2110
11200.000000	89.375	101.3304
11380.000000	90.863	105.4074
11500.000000	91.925	106.1998
11720.000000	93.808	104.1941
11800.000000	94.466	102.6587
12060.000000	96.663	95.3479
12200.000000	97.946	89.2994
12410.000000	99.796	74.8487
12500.000000	100.393	66.0202
12650.000000	100.850	48.2512
12800.000000	100.458	29.4850
13150.000000	96.922	0.1328
13200.000000	96.286	-1.9991
13400.000000	93.829	-7.0035
13600.000000	91.709	-8.3568
13800.000000	89.970	-7.7379
14000.000000	88.560	-6.0016
14300.000000	86.942	-2.2382
14500.000000	86.146	0.6365
14750.000000	85.422	4.4111
15000.000000	84.980	8.1911
15250.000000	84.817	11.7258
15500.000000	84.945	14.7113
15750.000000	85.386	16.6824
16000.000000	86.153	16.8579
16250.000000	87.195	13.9249
16500.000000	88.273	6.0057
16750.000000	88.900	-8.0850
17000.000000	88.570	-26.0775
17250.000000	87.139	-42.4197
17500.000000	84.921	-53.2648
17750.000000	82.424	-58.8367
18000.000000	80.003	-60.9972
18250.000000	77.780	-61.2710
18500.000000	75.757	-60.6648
18750.000000	73.894	-59.9617
19000.000000	72.086	-59.5886
19250.000000	70.186	-59.0404
19500.000000	68.174	-57.9041
19750.000000	66.180	-56.5625
