* Measurement data measured by REW V5.20.13
* Source: Headset (KM-HIFI-384KHZ), MICROPHONE (Master Volume), R, volume: 0.610
* Format: 256k Log Swept Sine, 1 sweep at -13.0 dBFS with no timing reference
* Dated: Aug 6, 2023 9:49:46 PM
* REW Settings:
*  C-weighting compensation: Off
*  Target level: 75.0 dB
* Note: ; 
* Measurement: Quarks Left
* Smoothing: 1/24 octave
* Frequency Step: 1/48 octave
* Start Frequency: 20.000 Hz
*
* Freq(Hz)	SPL(dB)	Phase(degrees)
20.000000	88.149	-146.8416
20.299999	88.227	-147.1506
20.600000	88.280	-147.7100
20.900000	88.299	-148.3513
21.200001	88.297	-148.9141
21.400000	88.297	-149.2348
21.799999	88.316	-149.8657
22.000000	88.333	-150.2422
22.400000	88.365	-151.2204
22.700001	88.360	-152.0749
23.000000	88.320	-152.8391
23.299999	88.262	-153.3296
23.600000	88.215	-153.4995
24.000000	88.218	-153.3722
24.299999	88.282	-153.2802
24.700001	88.419	-153.4879
25.000000	88.520	-153.9509
25.400000	88.609	-154.8044
25.799999	88.640	-155.5864
26.200001	88.642	-156.0806
26.500000	88.646	-156.2823
26.900000	88.668	-156.4556
27.200001	88.693	-156.6053
27.600000	88.726	-156.8896
28.000000	88.749	-157.2697
28.500000	88.751	-157.8443
29.000000	88.715	-158.4286
29.500000	88.647	-158.8144
30.000000	88.597	-158.8617
30.400000	88.610	-158.8041
30.700001	88.655	-158.8698
31.100000	88.738	-159.2764
31.500000	88.810	-160.0449
32.000000	88.844	-161.2182
32.500000	88.827	-162.2175
33.000000	88.803	-162.8987
33.500000	88.791	-163.3828
34.000000	88.782	-163.7237
34.500000	88.776	-163.8298
35.000000	88.795	-163.7141
35.500000	88.848	-163.6070
36.000000	88.904	-163.6915
36.500000	88.927	-163.8667
37.000000	88.920	-163.8852
37.500000	88.922	-163.7016
38.200001	88.979	-163.5582
38.700001	89.024	-163.7971
39.500000	89.034	-164.4678
40.000000	89.019	-164.8043
40.599998	89.017	-165.1620
41.200001	89.029	-165.6539
41.799999	89.028	-166.2452
42.500000	89.005	-166.8015
43.099998	88.992	-167.0814
43.700001	88.998	-167.2814
44.400002	89.017	-167.4976
45.000000	89.036	-167.6601
45.500000	89.057	-167.8028
46.200001	89.084	-168.0945
46.799999	89.090	-168.4199
47.500000	89.073	-168.7433
48.200001	89.056	-168.9563
48.700001	89.051	-169.0979
49.400002	89.050	-169.3355
50.000000	89.052	-169.5577
50.799999	89.061	-169.8864
51.500000	89.067	-170.2237
52.200001	89.065	-170.5486
53.000000	89.061	-170.8592
53.799999	89.057	-171.1474
54.500000	89.049	-171.3755
55.200001	89.041	-171.5674
56.000000	89.040	-171.7886
57.000000	89.043	-172.1332
58.000000	89.043	-172.5463
59.000000	89.040	-172.9510
60.000000	89.042	-173.3314
60.799999	89.045	-173.6542
61.500000	89.044	-173.9212
62.200001	89.044	-174.1525
63.000000	89.050	-174.4087
64.000000	89.056	-174.7466
65.000000	89.059	-175.0298
66.000000	89.073	-175.2834
67.000000	89.087	-175.5845
68.000000	89.091	-175.8823
69.000000	89.089	-176.1596
70.000000	89.076	-176.3887
71.000000	89.067	-176.5543
72.000000	89.068	-176.7855
73.000000	89.063	-177.0831
74.000000	89.059	-177.3755
75.000000	89.059	-177.6952
76.199997	89.055	-178.1005
77.500000	89.048	-178.4645
78.800003	89.045	-178.7793
80.000000	89.038	-179.0607
81.199997	89.028	-179.2904
82.500000	89.021	-179.5346
83.800003	89.011	-179.8085
85.000000	88.998	179.9500
86.199997	88.986	179.7211
87.500000	88.974	179.4481
88.500000	88.962	179.2411
90.000000	88.945	178.9579
91.199997	88.933	178.7386
92.500000	88.920	178.4970
93.800003	88.905	178.2608
95.000000	88.890	178.0562
96.199997	88.877	177.8529
97.500000	88.865	177.6218
98.800003	88.852	177.3813
100.000000	88.839	177.1660
101.500000	88.821	176.9179
103.000000	88.804	176.6774
104.400002	88.790	176.4432
106.000000	88.774	176.1646
107.500000	88.758	175.9039
109.000000	88.742	175.6729
110.599998	88.725	175.4534
112.000000	88.711	175.2643
113.800003	88.690	175.0038
115.000000	88.676	174.8172
117.199997	88.656	174.4697
118.000000	88.651	174.3350
120.599998	88.619	173.8991
122.000000	88.594	173.7839
124.099998	88.567	173.6260
125.000000	88.554	173.5389
126.500000	88.532	173.3758
128.000000	88.512	173.1980
131.500000	88.471	172.7625
132.000000	88.465	172.7039
134.000000	88.439	172.4848
136.000000	88.411	172.2743
138.000000	88.384	172.0546
140.000000	88.356	171.8357
143.000000	88.314	171.5490
145.000000	88.287	171.3726
147.500000	88.252	171.1541
150.000000	88.213	170.9418
152.500000	88.173	170.7427
155.000000	88.137	170.5519
157.500000	88.102	170.3459
160.000000	88.063	170.1453
162.500000	88.024	169.9741
165.000000	87.988	169.7961
167.500000	87.951	169.6098
170.000000	87.915	169.4420
172.500000	87.880	169.2943
175.000000	87.844	169.1543
177.500000	87.808	169.0053
180.000000	87.772	168.8350
182.500000	87.734	168.6742
185.000000	87.693	168.5491
187.500000	87.652	168.4569
190.000000	87.615	168.3553
192.500000	87.578	168.2238
195.000000	87.538	168.0992
197.500000	87.495	168.0062
200.000000	87.453	167.9333
203.000000	87.405	167.8502
206.000000	87.358	167.7582
209.000000	87.309	167.6544
212.000000	87.259	167.5472
214.000000	87.227	167.4833
218.000000	87.166	167.3740
220.000000	87.138	167.3267
224.000000	87.081	167.2455
227.000000	87.038	167.1812
230.000000	86.996	167.1075
233.000000	86.957	167.0394
236.000000	86.921	166.9884
240.000000	86.870	166.9299
243.000000	86.833	166.8714
247.000000	86.786	166.7935
250.000000	86.751	166.7552
254.000000	86.706	166.7247
258.000000	86.658	166.7094
262.000000	86.609	166.6924
265.000000	86.572	166.6805
269.000000	86.525	166.6896
272.000000	86.487	166.7055
276.000000	86.435	166.7222
280.000000	86.385	166.7497
285.000000	86.321	166.7982
290.000000	86.256	166.8451
295.000000	86.192	166.9016
300.000000	86.129	166.9710
304.000000	86.078	167.0333
307.000000	86.041	167.0848
311.000000	85.990	167.1635
315.000000	85.940	167.2505
320.000000	85.879	167.3635
325.000000	85.819	167.4835
330.000000	85.760	167.6116
335.000000	85.702	167.7444
340.000000	85.646	167.8792
345.000000	85.590	168.0248
350.000000	85.535	168.1835
355.000000	85.480	168.3498
360.000000	85.427	168.5179
365.000000	85.375	168.6898
370.000000	85.323	168.8665
375.000000	85.272	169.0481
382.000000	85.203	169.3137
387.000000	85.155	169.5081
395.000000	85.081	169.8262
400.000000	85.036	170.0287
406.000000	84.983	170.2732
412.000000	84.931	170.5181
418.000000	84.882	170.7617
425.000000	84.827	171.0520
431.000000	84.781	171.3093
437.000000	84.736	171.5663
444.000000	84.686	171.8600
450.000000	84.643	172.1173
455.000000	84.606	172.3403
462.000000	84.556	172.6653
468.000000	84.513	172.9480
475.000000	84.463	173.2773
482.000000	84.415	173.6096
487.000000	84.381	173.8525
494.000000	84.335	174.2025
500.000000	84.296	174.5120
508.000000	84.245	174.9333
515.000000	84.202	175.3056
522.000000	84.159	175.6841
530.000000	84.111	176.1265
538.000000	84.064	176.5760
545.000000	84.024	176.9793
552.000000	83.984	177.3934
560.000000	83.939	177.8724
570.000000	83.886	178.4774
580.000000	83.834	179.0897
590.000000	83.785	179.7097
600.000000	83.739	-179.6581
608.000000	83.705	-179.1437
615.000000	83.676	-178.6917
622.000000	83.649	-178.2393
630.000000	83.620	-177.7189
640.000000	83.586	-177.0603
650.000000	83.553	-176.3903
660.000000	83.524	-175.7165
670.000000	83.497	-175.0346
680.000000	83.472	-174.3440
690.000000	83.451	-173.6454
700.000000	83.433	-172.9437
710.000000	83.419	-172.2447
720.000000	83.407	-171.5436
730.000000	83.398	-170.8323
740.000000	83.391	-170.1078
750.000000	83.388	-169.3759
762.000000	83.388	-168.4946
775.000000	83.394	-167.5502
788.000000	83.407	-166.6185
800.000000	83.422	-165.7574
812.000000	83.437	-164.8885
825.000000	83.454	-163.9303
838.000000	83.474	-162.9648
850.000000	83.498	-162.0839
862.000000	83.528	-161.2261
875.000000	83.571	-160.3192
885.000000	83.609	-159.6299
900.000000	83.675	-158.6108
912.000000	83.735	-157.8105
925.000000	83.806	-156.9659
938.000000	83.884	-156.1528
950.000000	83.960	-155.4317
962.000000	84.040	-154.7352
975.000000	84.132	-154.0029
988.000000	84.228	-153.2967
1000.000000	84.320	-152.6760
1015.000000	84.438	-151.9493
1030.000000	84.560	-151.2759
1044.000000	84.675	-150.6861
1060.000000	84.806	-150.0540
1075.000000	84.929	-149.5074
1090.000000	85.051	-149.0055
1106.000000	85.181	-148.5188
1120.000000	85.293	-148.1338
1138.000000	85.434	-147.6863
1150.000000	85.527	-147.4126
1172.000000	85.690	-146.9590
1180.000000	85.748	-146.8084
1206.000000	85.929	-146.3609
1220.000000	86.023	-146.1449
1241.000000	86.158	-145.8504
1250.000000	86.215	-145.7314
1265.000000	86.306	-145.5390
1280.000000	86.395	-145.3541
1315.000000	86.595	-144.9480
1320.000000	86.623	-144.8924
1340.000000	86.732	-144.6746
1360.000000	86.838	-144.4583
1380.000000	86.942	-144.2399
1400.000000	87.044	-144.0182
1430.000000	87.195	-143.6773
1450.000000	87.295	-143.4482
1475.000000	87.420	-143.1639
1500.000000	87.546	-142.8738
1525.000000	87.674	-142.5856
1550.000000	87.805	-142.3152
1575.000000	87.940	-142.0788
1600.000000	88.078	-141.9236
1625.000000	88.206	-141.9078
1650.000000	88.295	-141.9267
1675.000000	88.355	-141.6388
1700.000000	88.444	-141.0383
1725.000000	88.573	-140.4030
1750.000000	88.723	-139.8619
1775.000000	88.884	-139.4313
1800.000000	89.046	-139.0775
1825.000000	89.209	-138.7702
1850.000000	89.374	-138.4945
1875.000000	89.542	-138.2451
1900.000000	89.712	-138.0200
1925.000000	89.885	-137.8197
1950.000000	90.061	-137.6442
1975.000000	90.241	-137.4946
2000.000000	90.425	-137.3731
2030.000000	90.651	-137.2651
2060.000000	90.885	-137.1977
2090.000000	91.128	-137.2022
2120.000000	91.377	-137.2722
2140.000000	91.544	-137.3378
2180.000000	91.876	-137.5364
2200.000000	92.044	-137.6883
2240.000000	92.386	-138.0925
2270.000000	92.645	-138.4839
2300.000000	92.907	-138.9569
2330.000000	93.170	-139.5176
2360.000000	93.434	-140.1718
2400.000000	93.787	-141.1991
2430.000000	94.050	-142.0927
2470.000000	94.398	-143.4578
2500.000000	94.654	-144.6161
2540.000000	94.986	-146.3464
2580.000000	95.305	-148.2949
2620.000000	95.604	-150.4626
2650.000000	95.814	-152.2287
2690.000000	96.069	-154.7634
2720.000000	96.239	-156.7910
2760.000000	96.435	-159.6443
2800.000000	96.589	-162.6393
2850.000000	96.719	-166.5240
2900.000000	96.776	-170.4875
2950.000000	96.757	-174.4381
3000.000000	96.663	-178.2839
3040.000000	96.536	178.7719
3070.000000	96.414	176.6672
3110.000000	96.216	174.0289
3150.000000	95.983	171.6130
3200.000000	95.652	168.9456
3250.000000	95.287	166.7023
3300.000000	94.901	164.9086
3350.000000	94.508	163.5777
3400.000000	94.122	162.6916
3450.000000	93.764	162.1747
3500.000000	93.448	161.8810
3550.000000	93.179	161.6387
3600.000000	92.942	161.3345
3650.000000	92.716	160.9561
3700.000000	92.487	160.5538
3750.000000	92.251	160.1863
3820.000000	91.908	159.8158
3870.000000	91.657	159.7027
3950.000000	91.257	159.8708
4000.000000	91.019	160.2098
4060.000000	90.753	160.8188
4120.000000	90.513	161.5911
4180.000000	90.303	162.4379
4250.000000	90.100	163.4396
4310.000000	89.957	164.2885
4370.000000	89.828	165.1387
4440.000000	89.689	166.1206
4500.000000	89.581	166.9365
4550.000000	89.499	167.5991
4620.000000	89.395	168.5045
4680.000000	89.314	169.2632
4750.000000	89.228	170.1266
4820.000000	89.150	170.9783
4870.000000	89.100	171.5801
4940.000000	89.044	172.3874
5000.000000	89.008	173.0517
5080.000000	88.972	173.9001
5150.000000	88.952	174.5900
5220.000000	88.941	175.2103
5300.000000	88.934	175.8231
5380.000000	88.925	176.3505
5450.000000	88.913	176.7852
5520.000000	88.896	177.2463
5600.000000	88.880	177.8504
5700.000000	88.884	178.7011
5800.000000	88.928	179.5323
5900.000000	89.010	-179.7894
6000.000000	89.117	-179.3416
6080.000000	89.212	-179.1688
6150.000000	89.298	-179.1537
6220.000000	89.384	-179.2617
6300.000000	89.480	-179.5298
6400.000000	89.591	179.9300
6500.000000	89.689	179.1785
6600.000000	89.766	178.2385
6700.000000	89.820	177.1445
6800.000000	89.849	175.9356
6900.000000	89.850	174.6558
7000.000000	89.825	173.3599
7100.000000	89.780	172.0948
7200.000000	89.723	170.8527
7300.000000	89.655	169.5817
7400.000000	89.569	168.2639
7500.000000	89.456	166.9489
7620.000000	89.283	165.4732
7750.000000	89.056	164.1219
7880.000000	88.811	163.1418
8000.000000	88.591	162.5653
8120.000000	88.395	162.2609
8250.000000	88.230	162.1649
8380.000000	88.132	162.1309
8500.000000	88.100	161.9648
8620.000000	88.112	161.5269
8750.000000	88.148	160.6697
8850.000000	88.182	159.7349
9000.000000	88.224	157.8513
9120.000000	88.230	155.9190
9250.000000	88.186	153.4377
9380.000000	88.067	150.6372
9500.000000	87.873	147.9075
9620.000000	87.593	145.2029
9750.000000	87.195	142.4803
9880.000000	86.711	140.1327
10000.000000	86.202	138.3941
10150.000000	85.506	136.8671
10300.000000	84.770	136.0765
10440.000000	84.069	135.9808
10600.000000	83.274	136.5658
10750.000000	82.548	137.7029
10900.000000	81.849	139.3298
11060.000000	81.138	141.5287
11200.000000	80.547	143.7877
11380.000000	79.835	147.0722
11500.000000	79.388	149.4620
11720.000000	78.631	154.1858
11800.000000	78.375	155.9972
12060.000000	77.615	162.1564
12200.000000	77.250	165.6075
12410.000000	76.758	170.9072
12500.000000	76.566	173.2112
12650.000000	76.270	177.0826
12800.000000	76.004	-179.0206
13150.000000	75.488	-169.9396
13200.000000	75.426	-168.6565
13400.000000	75.204	-163.5788
13600.000000	75.019	-158.6088
13800.000000	74.873	-153.7671
14000.000000	74.771	-149.0559
14300.000000	74.728	-142.3013
14500.000000	74.784	-138.1631
14750.000000	74.944	-133.5934
15000.000000	75.195	-129.8000
15250.000000	75.532	-126.9190
15500.000000	75.949	-125.1133
15750.000000	76.428	-124.5691
16000.000000	76.930	-125.4557
16250.000000	77.394	-127.8574
16500.000000	77.747	-131.6741
16750.000000	77.922	-136.5015
17000.000000	77.885	-141.6492
17250.000000	77.669	-146.3855
17500.000000	77.336	-150.3383
17750.000000	76.933	-153.2099
18000.000000	76.531	-154.9720
18250.000000	76.171	-155.7665
18500.000000	75.890	-155.8701
18750.000000	75.691	-155.6794
19000.000000	75.544	-155.6057
19250.000000	75.366	-156.0227
19500.000000	75.044	-157.1325
19750.000000	74.529	-158.6783
