* Measurement data measured by REW V5.20.13
* Source: EXCL: Headset (KM-HIFI-384KHZ), MICROPHONE (Master Volume), 0, volume: 1.000
* Format: 256k Log Swept Sine, 1 sweep at -13.0 dBFS with no timing reference
* Dated: Aug 12, 2023 5:03:22 PM
* REW Settings:
*  C-weighting compensation: Off
*  Target level: 75.0 dB
* Note: ; 
* Measurement: Tozo A1 R
* Smoothing: 1/24 octave
* Frequency Step: 1/48 octave
* Start Frequency: 20.000 Hz
*
* Freq(Hz)	SPL(dB)	Phase(degrees)
20.000000	106.856	138.1700
20.299999	106.858	136.7832
20.600000	106.860	135.4102
20.900000	106.861	134.0499
21.200001	106.861	132.7009
21.400000	106.861	131.8074
21.799999	106.859	130.0338
22.000000	106.858	129.1540
22.400000	106.855	127.4088
22.700001	106.852	126.1126
23.000000	106.849	124.8264
23.299999	106.846	123.5486
23.600000	106.842	122.2775
24.000000	106.837	120.5914
24.299999	106.831	119.3345
24.700001	106.822	117.6734
25.000000	106.814	116.4424
25.400000	106.801	114.8242
25.799999	106.789	113.2309
26.200001	106.778	111.6559
26.500000	106.769	110.4819
26.900000	106.758	108.9219
27.200001	106.749	107.7554
27.600000	106.736	106.2064
28.000000	106.721	104.6675
28.500000	106.701	102.7615
29.000000	106.679	100.8755
29.500000	106.656	99.0078
30.000000	106.633	97.1566
30.400000	106.613	95.6869
30.700001	106.598	94.5911
31.100000	106.577	93.1384
31.500000	106.557	91.6951
32.000000	106.530	89.9034
32.500000	106.503	88.1249
33.000000	106.475	86.3599
33.500000	106.446	84.6091
34.000000	106.417	82.8725
34.500000	106.387	81.1484
35.000000	106.357	79.4355
35.500000	106.326	77.7343
36.000000	106.294	76.0471
36.500000	106.262	74.3724
37.000000	106.229	72.7058
37.500000	106.197	71.0437
38.200001	106.148	68.7285
38.700001	106.112	67.0912
39.500000	106.052	64.5057
40.000000	106.016	62.9043
40.599998	105.972	60.9895
41.200001	105.927	59.0831
41.799999	105.879	57.1925
42.500000	105.823	55.0135
43.099998	105.775	53.1655
43.700001	105.727	51.3290
44.400002	105.670	49.1995
45.000000	105.621	47.3893
45.500000	105.581	45.8924
46.200001	105.526	43.8087
46.799999	105.480	42.0256
47.500000	105.426	39.9418
48.200001	105.370	37.8567
48.700001	105.328	36.3732
49.400002	105.267	34.3123
50.000000	105.214	32.5587
50.799999	105.142	30.2314
51.500000	105.077	28.2090
52.200001	105.011	26.2032
53.000000	104.935	23.9246
53.799999	104.858	21.6562
54.500000	104.791	19.6804
55.200001	104.721	17.7172
56.000000	104.641	15.5025
57.000000	104.543	12.7654
58.000000	104.439	10.0453
59.000000	104.329	7.4426
60.000000	104.237	4.9093
60.799999	104.170	2.8046
61.500000	104.104	0.9166
62.200001	104.028	-0.9586
63.000000	103.937	-3.0593
64.000000	103.824	-5.6422
65.000000	103.712	-8.2032
66.000000	103.599	-10.7426
67.000000	103.485	-13.2463
68.000000	103.372	-15.7173
69.000000	103.259	-18.1636
70.000000	103.144	-20.5870
71.000000	103.028	-22.9849
72.000000	102.910	-25.3577
73.000000	102.792	-27.7125
74.000000	102.673	-30.0476
75.000000	102.553	-32.3500
76.199997	102.412	-35.0716
77.500000	102.262	-38.0103
78.800003	102.109	-40.9110
80.000000	101.970	-43.5630
81.199997	101.828	-46.2149
82.500000	101.665	-49.0591
83.800003	101.496	-51.8129
85.000000	101.342	-54.2665
86.199997	101.194	-56.6699
87.500000	101.035	-59.2410
88.500000	100.912	-61.1728
90.000000	100.733	-63.9515
91.199997	100.602	-66.0912
92.500000	100.472	-68.3884
93.800003	100.348	-70.6549
95.000000	100.242	-72.7249
96.199997	100.148	-74.8186
97.500000	100.059	-77.1576
98.800003	99.981	-79.6069
100.000000	99.914	-81.9697
101.500000	99.829	-85.0267
103.000000	99.735	-88.1481
104.400002	99.631	-91.0748
106.000000	99.489	-94.3896
107.500000	99.340	-97.4375
109.000000	99.187	-100.4360
110.599998	99.021	-103.5883
112.000000	98.875	-106.2458
113.800003	98.691	-109.4487
115.000000	98.579	-111.4762
117.199997	98.374	-115.3234
118.000000	98.284	-116.7448
120.599998	97.980	-121.3904
122.000000	97.798	-123.9019
124.099998	97.538	-127.4518
125.000000	97.438	-128.9347
126.500000	97.278	-131.3727
128.000000	97.124	-133.7707
131.500000	96.769	-139.2583
132.000000	96.719	-140.0330
134.000000	96.523	-143.1129
136.000000	96.331	-146.1573
138.000000	96.140	-149.1610
140.000000	95.951	-152.1235
143.000000	95.675	-156.5051
145.000000	95.496	-159.3848
147.500000	95.280	-162.9329
150.000000	95.070	-166.4222
152.500000	94.867	-169.8535
155.000000	94.671	-173.2329
157.500000	94.480	-176.5650
160.000000	94.293	-179.8541
162.500000	94.109	176.8840
165.000000	93.930	173.6514
167.500000	93.758	170.4545
170.000000	93.590	167.2918
172.500000	93.429	164.1596
175.000000	93.275	161.0651
177.500000	93.129	158.0283
180.000000	92.987	155.0423
182.500000	92.854	152.0767
185.000000	92.733	149.1265
187.500000	92.624	146.2000
190.000000	92.519	143.2903
192.500000	92.419	140.3610
195.000000	92.321	137.3813
197.500000	92.224	134.3927
200.000000	92.126	131.4396
203.000000	92.014	127.9495
206.000000	91.913	124.5065
209.000000	91.824	121.0920
212.000000	91.745	117.6775
214.000000	91.698	115.3914
218.000000	91.614	110.7819
220.000000	91.576	108.4536
224.000000	91.501	103.7515
227.000000	91.442	100.2053
230.000000	91.380	96.6731
233.000000	91.318	93.1716
236.000000	91.257	89.7090
240.000000	91.180	85.1494
243.000000	91.130	81.7557
247.000000	91.076	77.2795
250.000000	91.049	73.9576
254.000000	91.032	69.5315
258.000000	91.039	65.0646
262.000000	91.062	60.4958
265.000000	91.086	56.9745
269.000000	91.117	52.1538
272.000000	91.135	48.4594
276.000000	91.147	43.4684
280.000000	91.145	38.4547
285.000000	91.128	32.2125
290.000000	91.099	26.0390
295.000000	91.067	19.9324
300.000000	91.032	13.8770
304.000000	91.006	9.0603
307.000000	90.986	5.4620
311.000000	90.961	0.6777
315.000000	90.937	-4.0919
320.000000	90.909	-10.0302
325.000000	90.881	-15.9485
330.000000	90.855	-21.8478
335.000000	90.830	-27.7270
340.000000	90.805	-33.5827
345.000000	90.781	-39.4139
350.000000	90.756	-45.2219
355.000000	90.731	-51.0062
360.000000	90.706	-56.7587
365.000000	90.682	-62.4651
370.000000	90.660	-68.1288
375.000000	90.639	-73.7710
382.000000	90.611	-81.5917
387.000000	90.595	-87.0800
395.000000	90.597	-95.7119
400.000000	90.626	-101.0869
406.000000	90.688	-107.6747
412.000000	90.748	-114.5276
418.000000	90.775	-121.4635
425.000000	90.796	-129.4126
431.000000	90.816	-136.2471
437.000000	90.825	-143.0876
444.000000	90.824	-150.9934
450.000000	90.819	-157.6948
455.000000	90.816	-163.2338
462.000000	90.814	-170.9297
468.000000	90.815	-177.4777
475.000000	90.819	174.9292
482.000000	90.828	167.3779
487.000000	90.837	162.0076
494.000000	90.853	154.5154
500.000000	90.869	148.1154
508.000000	90.896	139.6128
515.000000	90.923	132.2004
522.000000	90.954	124.8097
530.000000	90.994	116.3834
538.000000	91.039	107.9801
545.000000	91.082	100.6396
552.000000	91.128	93.3058
560.000000	91.185	84.9344
570.000000	91.261	74.4795
580.000000	91.342	64.0168
590.000000	91.427	53.5438
600.000000	91.514	43.0538
608.000000	91.585	34.6440
615.000000	91.646	27.2715
622.000000	91.707	19.8857
630.000000	91.773	11.4282
640.000000	91.851	0.8315
650.000000	91.920	-9.7887
660.000000	91.980	-20.4199
670.000000	92.028	-31.0491
680.000000	92.062	-41.6643
690.000000	92.083	-52.2494
700.000000	92.089	-62.7849
710.000000	92.081	-73.2534
720.000000	92.059	-83.6417
730.000000	92.026	-93.9353
740.000000	91.984	-104.1200
750.000000	91.934	-114.1897
762.000000	91.867	-126.1178
775.000000	91.789	-138.8445
788.000000	91.710	-151.3691
800.000000	91.639	-162.7585
812.000000	91.572	-173.9952
825.000000	91.508	173.9867
838.000000	91.452	162.1183
850.000000	91.410	151.2841
862.000000	91.376	140.5554
875.000000	91.351	129.0378
885.000000	91.339	120.2439
900.000000	91.334	107.1499
912.000000	91.340	96.7493
925.000000	91.357	85.5480
938.000000	91.384	74.4082
950.000000	91.418	64.1714
962.000000	91.460	53.9725
975.000000	91.513	42.9634
988.000000	91.574	31.9912
1000.000000	91.637	21.8926
1015.000000	91.724	9.3032
1030.000000	91.819	-3.2551
1044.000000	91.913	-14.9509
1060.000000	92.027	-28.2876
1075.000000	92.137	-40.7629
1090.000000	92.251	-53.2109
1106.000000	92.373	-66.4528
1120.000000	92.482	-77.9982
1138.000000	92.626	-92.7784
1150.000000	92.725	-102.5958
1172.000000	92.915	-120.5308
1180.000000	92.986	-127.0369
1206.000000	93.224	-148.1340
1220.000000	93.355	-159.4630
1241.000000	93.554	-176.4127
1250.000000	93.641	176.3392
1265.000000	93.788	164.2782
1280.000000	93.937	152.2371
1315.000000	94.294	124.1858
1320.000000	94.345	120.1809
1340.000000	94.550	104.1635
1360.000000	94.754	88.1469
1380.000000	94.953	72.1289
1400.000000	95.145	56.1096
1430.000000	95.414	32.0948
1450.000000	95.577	16.1116
1475.000000	95.759	-3.8066
1500.000000	95.917	-23.6208
1525.000000	96.050	-43.2893
1550.000000	96.160	-62.7751
1575.000000	96.252	-82.0488
1600.000000	96.330	-101.0923
1625.000000	96.400	-119.8984
1650.000000	96.467	-138.4707
1675.000000	96.534	-156.8208
1700.000000	96.604	-174.9622
1725.000000	96.680	167.0884
1750.000000	96.763	149.3135
1775.000000	96.854	131.6963
1800.000000	96.953	114.2217
1825.000000	97.060	96.8750
1850.000000	97.175	79.6450
1875.000000	97.297	62.5212
1900.000000	97.426	45.4932
1925.000000	97.562	28.5557
1950.000000	97.703	11.7007
1975.000000	97.849	-5.0771
2000.000000	97.998	-21.7822
2030.000000	98.183	-41.7393
2060.000000	98.371	-61.6025
2090.000000	98.562	-81.3770
2120.000000	98.756	-101.0686
2140.000000	98.885	-114.1519
2180.000000	99.144	-140.2124
2200.000000	99.273	-153.1877
2240.000000	99.535	-179.0413
2270.000000	99.732	161.6372
2300.000000	99.925	142.3975
2330.000000	100.109	123.2432
2360.000000	100.287	104.1572
2400.000000	100.517	78.8208
2430.000000	100.682	59.9060
2470.000000	100.893	34.8049
2500.000000	101.042	16.0691
2540.000000	101.228	-8.7883
2580.000000	101.399	-33.5012
2620.000000	101.553	-58.0615
2650.000000	101.657	-76.3779
2690.000000	101.779	-100.6553
2720.000000	101.859	-118.7529
2760.000000	101.947	-142.7246
2800.000000	102.015	-166.5027
2850.000000	102.073	164.0579
2900.000000	102.099	134.9473
2950.000000	102.095	106.1897
3000.000000	102.064	77.8052
3040.000000	102.020	55.3784
3070.000000	101.978	38.7261
3110.000000	101.910	16.7520
3150.000000	101.830	-4.9546
3200.000000	101.717	-31.7046
3250.000000	101.593	-58.0273
3300.000000	101.461	-83.9275
3350.000000	101.325	-109.4131
3400.000000	101.189	-134.4937
3450.000000	101.055	-159.1853
3500.000000	100.927	176.4880
3550.000000	100.805	152.5000
3600.000000	100.691	128.8254
3650.000000	100.584	105.4348
3700.000000	100.481	82.3010
3750.000000	100.381	59.4067
3820.000000	100.237	27.7534
3870.000000	100.125	5.4438
3950.000000	99.928	-29.6558
4000.000000	99.796	-51.1748
4060.000000	99.635	-76.5361
4120.000000	99.478	-101.3877
4180.000000	99.334	-125.7495
4250.000000	99.188	-153.5864
4310.000000	99.090	-177.0022
4370.000000	99.023	159.9419
4440.000000	98.982	133.4553
4500.000000	98.975	111.0647
4550.000000	98.989	92.6030
4620.000000	99.035	67.0269
4680.000000	99.098	45.3284
4750.000000	99.195	20.2444
4820.000000	99.314	-4.6182
4870.000000	99.413	-22.2593
4940.000000	99.569	-46.8213
5000.000000	99.709	-67.7549
5080.000000	99.898	-95.5322
5150.000000	100.059	-119.7383
5220.000000	100.206	-143.8442
5300.000000	100.346	-171.2329
5380.000000	100.446	161.6082
5450.000000	100.494	138.0903
5520.000000	100.502	114.8677
5600.000000	100.461	88.7764
5700.000000	100.341	56.9849
5800.000000	100.164	26.2778
5900.000000	99.963	-3.2148
6000.000000	99.779	-31.4434
6080.000000	99.671	-53.1514
6150.000000	99.624	-71.5713
6220.000000	99.632	-89.5361
6300.000000	99.720	-109.6348
6400.000000	99.960	-134.3623
6500.000000	100.344	-159.0122
6600.000000	100.847	176.0146
6700.000000	101.417	150.3521
6800.000000	101.976	123.7471
6900.000000	102.426	96.1958
7000.000000	102.677	68.0669
7100.000000	102.686	40.0435
7200.000000	102.462	12.8643
7300.000000	102.059	-12.9595
7400.000000	101.544	-37.1821
7500.000000	100.984	-59.7744
7620.000000	100.335	-84.9331
7750.000000	99.728	-110.2129
7880.000000	99.264	-133.9072
8000.000000	98.974	-154.7402
8120.000000	98.822	-174.8979
8250.000000	98.799	163.7236
8380.000000	98.893	142.5386
8500.000000	99.053	122.9316
8620.000000	99.250	103.1040
8750.000000	99.454	81.2637
8850.000000	99.565	64.2178
9000.000000	99.579	38.5088
9120.000000	99.418	18.1831
9250.000000	99.060	-3.1089
9380.000000	98.536	-23.2144
9500.000000	97.947	-40.4785
9620.000000	97.300	-56.3950
9750.000000	96.576	-72.1299
9880.000000	95.865	-86.3970
10000.000000	95.246	-98.3936
10150.000000	94.543	-112.0063
10300.000000	93.932	-124.3047
10440.000000	93.453	-134.8115
10600.000000	93.010	-145.9019
10750.000000	92.686	-155.5840
10900.000000	92.435	-164.7178
11060.000000	92.217	-173.9673
11200.000000	92.044	178.3193
11380.000000	91.811	168.9619
11500.000000	91.634	163.1636
11720.000000	91.248	153.7891
11800.000000	91.089	150.8740
12060.000000	90.546	143.5049
12200.000000	90.270	140.9048
12410.000000	89.929	138.6992
12500.000000	89.820	138.3247
12650.000000	89.696	138.3872
12800.000000	89.646	139.2271
13150.000000	89.826	143.8076
13200.000000	89.887	144.7305
13400.000000	90.226	149.0122
13600.000000	90.728	154.1543
13800.000000	91.403	160.0181
14000.000000	92.265	166.4526
14300.000000	93.998	176.7378
14500.000000	95.518	-176.6084
14750.000000	97.854	-169.9146
15000.000000	100.563	-167.3945
15250.000000	102.915	-173.4702
15500.000000	103.763	172.4878
15750.000000	102.856	161.6113
16000.000000	101.021	160.8828
16250.000000	99.223	167.6133
16500.000000	97.804	177.3770
16750.000000	96.577	-172.3105
17000.000000	95.217	-161.7842
17250.000000	93.479	-149.6294
17500.000000	91.314	-133.9697
17750.000000	88.836	-113.8003
18000.000000	86.221	-89.2095
18250.000000	83.603	-60.7988
18500.000000	81.042	-29.2393
18750.000000	78.536	4.9551
19000.000000	76.065	41.4194
19250.000000	73.601	79.8247
19500.000000	71.120	119.3379
19750.000000	68.710	155.9268
