* Measurement data measured by REW V5.20.13
* Source: Headset (KM-HIFI-384KHZ), MICROPHONE (Master Volume), L, volume: 0.250
* Format: 256k Log Swept Sine, 1 sweep at -13.0 dBFS with no timing reference
* Dated: Jul 20, 2023 2:40:54 AM
* REW Settings:
*  C-weighting compensation: Off
*  Target level: 75.0 dB
* Note: ; 
* Measurement: 7Hz Salnotes Zero L
* Smoothing: 1/24 octave
* Frequency Step: 1/48 octave
* Start Frequency: 20.000 Hz
*
* Freq(Hz)	SPL(dB)	Phase(degrees)
20.000000	100.056	-150.2997
20.299999	100.130	-151.1316
20.600000	100.174	-152.2383
20.900000	100.165	-153.5030
21.200001	100.097	-154.7254
21.400000	100.029	-155.4166
21.799999	99.867	-156.4480
22.000000	99.789	-156.8018
22.400000	99.669	-157.3279
22.700001	99.613	-157.7176
23.000000	99.578	-158.2027
23.299999	99.554	-158.7840
23.600000	99.537	-159.4319
24.000000	99.527	-160.3593
24.299999	99.532	-161.1039
24.700001	99.553	-162.1940
25.000000	99.571	-163.0822
25.400000	99.588	-164.2897
25.799999	99.598	-165.3927
26.200001	99.618	-166.3286
26.500000	99.649	-166.9737
26.900000	99.708	-167.8845
27.200001	99.749	-168.6683
27.600000	99.773	-169.8161
28.000000	99.743	-170.8840
28.500000	99.644	-171.7479
29.000000	99.546	-171.9816
29.500000	99.500	-171.9111
30.000000	99.496	-171.9644
30.400000	99.490	-172.1723
30.700001	99.478	-172.3721
31.100000	99.457	-172.6303
31.500000	99.446	-172.9004
32.000000	99.456	-173.4300
32.500000	99.469	-174.3607
33.000000	99.443	-175.6397
33.500000	99.357	-176.9815
34.000000	99.231	-178.0895
34.500000	99.103	-178.8684
35.000000	98.998	-179.4027
35.500000	98.919	-179.8011
36.000000	98.860	179.9155
36.500000	98.822	179.7677
37.000000	98.812	179.7123
37.500000	98.830	179.6250
38.200001	98.868	179.2446
38.700001	98.870	178.8165
39.500000	98.811	178.2415
40.000000	98.764	178.0667
40.599998	98.729	177.9105
41.200001	98.713	177.5551
41.799999	98.686	176.9244
42.500000	98.609	176.0771
43.099998	98.524	175.5010
43.700001	98.453	175.0947
44.400002	98.407	174.7159
45.000000	98.399	174.3944
45.500000	98.412	174.0868
46.200001	98.445	173.5161
46.799999	98.460	172.8988
47.500000	98.437	172.2179
48.200001	98.383	171.7744
48.700001	98.340	171.6073
49.400002	98.285	171.4726
50.000000	98.243	171.3316
50.799999	98.173	170.9870
51.500000	98.079	170.6190
52.200001	97.967	170.3592
53.000000	97.861	170.1345
53.799999	97.779	169.7690
54.500000	97.712	169.3846
55.200001	97.659	169.0120
56.000000	97.615	168.5354
57.000000	97.556	168.0197
58.000000	97.522	167.7189
59.000000	97.491	167.3226
60.000000	97.414	167.0661
60.799999	97.352	167.0660
61.500000	97.310	167.0660
62.200001	97.273	166.9930
63.000000	97.232	166.8059
64.000000	97.174	166.4017
65.000000	97.095	165.9329
66.000000	97.007	165.6297
67.000000	96.948	165.4965
68.000000	96.922	165.2380
69.000000	96.876	164.8162
70.000000	96.807	164.5083
71.000000	96.746	164.2838
72.000000	96.691	164.0328
73.000000	96.639	163.7855
74.000000	96.592	163.5589
75.000000	96.550	163.3888
76.199997	96.505	163.2186
77.500000	96.445	163.0959
78.800003	96.382	163.0923
80.000000	96.323	163.0162
81.199997	96.249	162.8955
82.500000	96.168	162.7853
83.800003	96.097	162.6554
85.000000	96.033	162.5110
86.199997	95.973	162.4667
87.500000	95.932	162.4262
88.500000	95.897	162.3201
90.000000	95.827	162.2010
91.199997	95.763	162.1716
92.500000	95.694	162.1587
93.800003	95.623	162.1033
95.000000	95.553	162.0149
96.199997	95.485	161.9180
97.500000	95.418	161.8226
98.800003	95.361	161.8196
100.000000	95.327	161.9167
101.500000	95.302	162.0678
103.000000	95.267	162.1703
104.400002	95.210	162.2630
106.000000	95.134	162.3209
107.500000	95.062	162.2095
109.000000	94.984	162.0330
110.599998	94.911	161.9745
112.000000	94.870	162.0479
113.800003	94.832	162.2118
115.000000	94.810	162.3265
117.199997	94.758	162.3647
118.000000	94.731	162.3593
120.599998	94.644	162.4169
122.000000	94.600	162.4720
124.099998	94.534	162.6483
125.000000	94.510	162.7341
126.500000	94.473	162.8431
128.000000	94.437	162.9129
131.500000	94.360	162.9735
132.000000	94.348	162.9749
134.000000	94.295	163.0101
136.000000	94.238	163.1095
138.000000	94.182	163.2136
140.000000	94.124	163.2927
143.000000	94.046	163.3880
145.000000	94.008	163.4232
147.500000	93.963	163.4481
150.000000	93.908	163.5091
152.500000	93.845	163.6234
155.000000	93.781	163.8030
157.500000	93.717	164.0551
160.000000	93.655	164.3355
162.500000	93.590	164.5791
165.000000	93.527	164.8293
167.500000	93.477	165.1103
170.000000	93.438	165.3590
172.500000	93.397	165.5479
175.000000	93.355	165.7002
177.500000	93.325	165.8260
180.000000	93.307	165.9355
182.500000	93.289	166.0453
185.000000	93.267	166.1635
187.500000	93.246	166.3070
190.000000	93.226	166.4936
192.500000	93.198	166.7342
195.000000	93.163	166.9964
197.500000	93.127	167.2217
200.000000	93.092	167.4053
203.000000	93.049	167.6209
206.000000	93.005	167.8206
209.000000	92.963	167.9800
212.000000	92.925	168.1190
214.000000	92.901	168.2173
218.000000	92.847	168.4553
220.000000	92.820	168.6052
224.000000	92.779	168.9298
227.000000	92.752	169.1777
230.000000	92.721	169.4425
233.000000	92.690	169.7011
236.000000	92.662	169.9220
240.000000	92.636	170.1574
243.000000	92.623	170.3053
247.000000	92.604	170.4761
250.000000	92.584	170.6002
254.000000	92.550	170.8139
258.000000	92.512	171.1102
262.000000	92.475	171.4525
265.000000	92.448	171.7118
269.000000	92.414	172.0340
272.000000	92.388	172.2459
276.000000	92.356	172.4902
280.000000	92.326	172.6877
285.000000	92.300	172.8832
290.000000	92.284	173.1041
295.000000	92.266	173.4017
300.000000	92.239	173.7566
304.000000	92.212	174.0505
307.000000	92.190	174.2705
311.000000	92.160	174.5616
315.000000	92.134	174.8530
320.000000	92.108	175.2181
325.000000	92.086	175.5574
330.000000	92.069	175.8465
335.000000	92.057	176.1007
340.000000	92.046	176.3485
345.000000	92.033	176.6115
350.000000	92.017	176.9015
355.000000	91.996	177.2282
360.000000	91.972	177.5878
365.000000	91.947	177.9528
370.000000	91.923	178.2950
375.000000	91.903	178.5976
382.000000	91.885	178.9727
387.000000	91.877	179.2275
395.000000	91.873	179.6258
400.000000	91.874	179.8876
406.000000	91.876	-179.7863
412.000000	91.878	-179.4652
418.000000	91.879	-179.1592
425.000000	91.879	-178.8185
431.000000	91.878	-178.5236
437.000000	91.874	-178.2167
444.000000	91.865	-177.8481
450.000000	91.854	-177.5358
455.000000	91.841	-177.2775
462.000000	91.820	-176.9094
468.000000	91.799	-176.5872
475.000000	91.778	-176.2069
482.000000	91.760	-175.8286
487.000000	91.748	-175.5658
494.000000	91.735	-175.2111
500.000000	91.730	-174.9177
508.000000	91.730	-174.5431
515.000000	91.735	-174.2309
522.000000	91.740	-173.9329
530.000000	91.740	-173.5987
538.000000	91.733	-173.2337
545.000000	91.720	-172.8673
552.000000	91.702	-172.4656
560.000000	91.679	-171.9956
570.000000	91.655	-171.4413
580.000000	91.643	-170.9465
590.000000	91.646	-170.4923
600.000000	91.658	-170.0377
608.000000	91.670	-169.6583
615.000000	91.680	-169.3158
622.000000	91.689	-168.9681
630.000000	91.696	-168.5653
640.000000	91.700	-168.0495
650.000000	91.701	-167.5163
660.000000	91.704	-166.9635
670.000000	91.712	-166.4100
680.000000	91.728	-165.8854
690.000000	91.752	-165.3956
700.000000	91.779	-164.9214
710.000000	91.805	-164.4317
720.000000	91.827	-163.9056
730.000000	91.843	-163.3537
740.000000	91.852	-162.8003
750.000000	91.858	-162.2504
762.000000	91.864	-161.5869
775.000000	91.873	-160.8500
788.000000	91.893	-160.1148
800.000000	91.924	-159.4618
812.000000	91.968	-158.8332
825.000000	92.031	-158.1752
838.000000	92.104	-157.5301
850.000000	92.172	-156.9430
862.000000	92.237	-156.3523
875.000000	92.303	-155.6986
885.000000	92.350	-155.1918
900.000000	92.417	-154.4452
912.000000	92.472	-153.8643
925.000000	92.536	-153.2548
938.000000	92.610	-152.6707
950.000000	92.686	-152.1617
962.000000	92.771	-151.6833
975.000000	92.874	-151.2043
988.000000	92.984	-150.7680
1000.000000	93.087	-150.3943
1015.000000	93.211	-149.9562
1030.000000	93.321	-149.5328
1044.000000	93.408	-149.1174
1060.000000	93.496	-148.5533
1075.000000	93.594	-147.9384
1090.000000	93.728	-147.4398
1106.000000	93.874	-147.2726
1120.000000	93.974	-147.2614
1138.000000	94.081	-147.1816
1150.000000	94.151	-147.0928
1172.000000	94.283	-146.9252
1180.000000	94.331	-146.8717
1206.000000	94.484	-146.7158
1220.000000	94.562	-146.6377
1241.000000	94.675	-146.5346
1250.000000	94.722	-146.4973
1265.000000	94.800	-146.4428
1280.000000	94.878	-146.3942
1315.000000	95.065	-146.3210
1320.000000	95.092	-146.3172
1340.000000	95.200	-146.3083
1360.000000	95.303	-146.2920
1380.000000	95.398	-146.2682
1400.000000	95.482	-146.2393
1430.000000	95.592	-146.1736
1450.000000	95.662	-146.1242
1475.000000	95.753	-146.0719
1500.000000	95.856	-146.0402
1525.000000	95.967	-146.0267
1550.000000	96.081	-146.0055
1575.000000	96.192	-145.9745
1600.000000	96.299	-145.9519
1625.000000	96.401	-145.9272
1650.000000	96.499	-145.8884
1675.000000	96.596	-145.8618
1700.000000	96.695	-145.8616
1725.000000	96.797	-145.8688
1750.000000	96.896	-145.8762
1775.000000	96.994	-145.8878
1800.000000	97.091	-145.9123
1825.000000	97.186	-145.9522
1850.000000	97.280	-145.9909
1875.000000	97.375	-146.0345
1900.000000	97.470	-146.0944
1925.000000	97.569	-146.1558
1950.000000	97.674	-146.2238
1975.000000	97.785	-146.3122
2000.000000	97.904	-146.4142
2030.000000	98.055	-146.5634
2060.000000	98.209	-146.7767
2090.000000	98.360	-147.0435
2120.000000	98.498	-147.3276
2140.000000	98.581	-147.5163
2180.000000	98.737	-147.8958
2200.000000	98.814	-148.1032
2240.000000	98.971	-148.5914
2270.000000	99.091	-149.0148
2300.000000	99.208	-149.4779
2330.000000	99.322	-149.9765
2360.000000	99.434	-150.5035
2400.000000	99.578	-151.2400
2430.000000	99.682	-151.8090
2470.000000	99.817	-152.6008
2500.000000	99.916	-153.2304
2540.000000	100.041	-154.0992
2580.000000	100.151	-154.9836
2620.000000	100.248	-155.8919
2650.000000	100.315	-156.5951
2690.000000	100.396	-157.5548
2720.000000	100.451	-158.2849
2760.000000	100.516	-159.2687
2800.000000	100.571	-160.2596
2850.000000	100.626	-161.4956
2900.000000	100.666	-162.7108
2950.000000	100.693	-163.8860
3000.000000	100.711	-164.9957
3040.000000	100.721	-165.8248
3070.000000	100.726	-166.4067
3110.000000	100.730	-167.1024
3150.000000	100.734	-167.6950
3200.000000	100.754	-168.3363
3250.000000	100.808	-169.0019
3300.000000	100.892	-169.8931
3350.000000	100.979	-171.1027
3400.000000	101.033	-172.5328
3450.000000	101.042	-174.0140
3500.000000	101.013	-175.4282
3550.000000	100.957	-176.7396
3600.000000	100.886	-177.9407
3650.000000	100.802	-179.0355
3700.000000	100.706	179.9618
3750.000000	100.601	179.0417
3820.000000	100.451	177.8479
3870.000000	100.348	177.0372
3950.000000	100.189	175.8312
4000.000000	100.088	175.1274
4060.000000	99.963	174.3532
4120.000000	99.838	173.6478
4180.000000	99.720	173.0105
4250.000000	99.585	172.3853
4310.000000	99.475	171.9197
4370.000000	99.368	171.4763
4440.000000	99.238	170.9536
4500.000000	99.112	170.5005
4550.000000	98.995	170.1320
4620.000000	98.817	169.6403
4680.000000	98.657	169.2552
4750.000000	98.467	168.8664
4820.000000	98.283	168.5430
4870.000000	98.158	168.3442
4940.000000	97.992	168.1085
5000.000000	97.857	167.9435
5080.000000	97.679	167.7781
5150.000000	97.520	167.7088
5220.000000	97.350	167.7570
5300.000000	97.148	167.9973
5380.000000	96.948	168.4240
5450.000000	96.783	168.9024
5520.000000	96.629	169.4388
5600.000000	96.461	170.1020
5700.000000	96.263	171.0248
5800.000000	96.092	172.1348
5900.000000	95.981	173.4316
6000.000000	95.941	174.5903
6080.000000	95.915	175.3504
6150.000000	95.882	176.0181
6220.000000	95.847	176.7406
6300.000000	95.816	177.6267
6400.000000	95.801	178.7881
6500.000000	95.815	179.9641
6600.000000	95.860	-178.8726
6700.000000	95.939	-177.7493
6800.000000	96.060	-176.7044
6900.000000	96.230	-175.7840
7000.000000	96.456	-175.0356
7100.000000	96.735	-174.5112
7200.000000	97.063	-174.3028
7300.000000	97.436	-174.5424
7400.000000	97.841	-175.3488
7500.000000	98.266	-176.8256
7620.000000	98.778	-179.6438
7750.000000	99.284	175.8056
7880.000000	99.645	169.6209
8000.000000	99.753	162.6997
8120.000000	99.578	155.2121
8250.000000	99.051	147.3891
8380.000000	98.225	140.7354
8500.000000	97.280	136.0752
8620.000000	96.239	132.9200
8750.000000	95.074	131.0408
8850.000000	94.185	130.5061
9000.000000	92.907	130.8747
9120.000000	91.953	131.9586
9250.000000	90.993	133.7361
9380.000000	90.104	136.0106
9500.000000	89.338	138.4660
9620.000000	88.617	141.2128
9750.000000	87.876	144.4872
9880.000000	87.168	148.0758
10000.000000	86.537	151.6987
10150.000000	85.776	156.7211
10300.000000	85.055	162.4354
10440.000000	84.432	168.5392
10600.000000	83.813	176.5831
10750.000000	83.382	-174.7201
10900.000000	83.213	-164.9798
11060.000000	83.483	-154.0072
11200.000000	84.185	-144.9942
11380.000000	85.579	-136.3191
11500.000000	86.595	-133.1504
11720.000000	88.169	-132.1904
11800.000000	88.599	-132.7849
12060.000000	89.567	-135.2637
12200.000000	89.943	-136.2192
12410.000000	90.493	-137.1592
12500.000000	90.748	-137.5349
12650.000000	91.209	-138.3701
12800.000000	91.706	-139.7254
13150.000000	92.816	-146.2731
13200.000000	92.942	-147.6610
13400.000000	93.277	-154.1857
13600.000000	93.275	-161.5768
13800.000000	92.916	-168.6127
14000.000000	92.279	-174.2439
14300.000000	91.099	-179.2386
14500.000000	90.337	179.3773
14750.000000	89.533	179.0213
15000.000000	88.950	179.3096
15250.000000	88.588	179.2950
15500.000000	88.397	178.1187
15750.000000	88.260	175.0753
16000.000000	87.981	169.9423
16250.000000	87.359	163.4332
16500.000000	86.291	157.1028
16750.000000	84.815	152.5084
17000.000000	83.070	150.5160
17250.000000	81.219	151.1917
17500.000000	79.394	154.1489
17750.000000	77.681	158.8491
18000.000000	76.135	164.6636
18250.000000	74.744	170.9582
18500.000000	73.410	177.7050
18750.000000	72.113	-174.3506
19000.000000	70.998	-165.7859
19250.000000	70.006	-157.4755
19500.000000	69.001	-148.9060
19750.000000	68.100	-140.6224
